Time (s),Voltage (V)
0.0,0.2878
0.002,0.4526666
0.004,0.4374666
0.006,-0.0028
0.008,0.4775999
0.01,-0.003866666
0.012,0.004799999
0.014,0.5122666
0.016,0.4613333
0.018000000000000002,-0.001733333
0.02,0.001533333
0.022,0.4710666
0.024,-0.004999999
0.026000000000000002,0.4656666
0.028,-0.0005999999
0.03,0.4418
0.032,-0.0005999999
0.034,0.4016666
0.036000000000000004,-0.0005999999
0.038,0.4092666
0.04,-0.01146667
0.042,0.4244666
0.044,-0.0005999999
0.046,0.4288
0.048,0.0004666666
0.05,0.4082
0.052000000000000005,-0.0028
0.054,0.5035999
0.056,-0.004999999
0.058,0.4418
0.06,0.001533333
0.062,0.5176666
0.064,0.4840666
0.066,-0.004999999
0.068,-0.0028
0.07,0.4591333
0.07200000000000001,0.4852
0.074,-0.001733333
0.076,0.4526666
0.078,0.001533333
0.08,0.4016666
0.082,-0.006066666
0.084,-0.009333332
0.08600000000000001,0.4157999
0.088,-0.009333332
0.09,0.4136
0.092,-0.0005999999
0.094,0.4211999
0.096,0.4070666
0.098,-0.003866666
0.1,0.4233333
0.10200000000000001,0.0004666666
0.10400000000000001,0.457
0.106,-0.0028
0.108,0.4472
0.11,0.0004666666
0.112,0.0004666666
0.114,0.4852
0.116,-0.01366667
0.11800000000000001,0.4428666
0.12,0.001533333
0.122,0.5025333
0.124,-0.004999999
0.126,0.4364
0.128,-0.004999999
0.13,0.4558666
0.132,-0.0028
0.134,0.4352666
0.136,0.4352666
0.138,-0.0028
0.14,0.432
0.14200000000000002,-0.0005999999
0.14400000000000002,0.4233333
0.146,-0.0028
0.148,-0.0005999999
0.15,0.4331333
0.152,0.4233333
0.154,-0.0005999999
0.156,-0.0028
0.158,0.4244666
0.16,-0.001733333
0.162,0.4526666
0.164,0.4721333
0.166,0.0004666666
0.168,0.4634666
0.17,0.0004666666
0.17200000000000001,0.5025333
0.17400000000000002,-0.0005999999
0.176,0.4482666
0.178,-0.003866666
0.18,-0.0028
0.182,0.4265999
0.184,-0.0028
0.186,0.4407333
0.188,-0.0005999999
0.19,0.4645333
0.192,0.0026
0.194,0.4439333
0.196,-0.0028
0.198,0.4439333
0.2,-0.0005999999
0.202,0.457
0.20400000000000001,-0.01366667
0.20600000000000002,0.4493999
0.20800000000000002,0.4558666
0.21,0.0004666666
0.212,-0.01146667
0.214,0.4764666
0.216,0.4537333
0.218,-0.0005999999
0.22,-0.006066666
0.222,0.4656666
0.224,-0.006066666
0.226,0.4493999
0.228,0.4548
0.23,-0.006066666
0.232,-0.006066666
0.234,0.4678
0.23600000000000002,0.457
0.23800000000000002,0.0004666666
0.24,0.0004666666
0.242,0.4136
0.244,0.001533333
0.246,0.4602
0.248,0.0004666666
0.25,0.4613333
0.252,0.4385333
0.254,-0.008199999
0.256,0.0004666666
0.258,0.4580666
0.26,0.4819333
0.262,-0.0028
0.264,-0.003866666
0.266,0.4634666
0.268,0.4656666
0.27,0.0004666666
0.272,0.4493999
0.274,-0.008199999
0.276,0.0004666666
0.278,0.4689333
0.28,0.4309333
0.28200000000000003,0.0026
0.28400000000000003,-0.004999999
0.28600000000000003,0.4764666
0.28800000000000003,0.4493999
0.29,0.001533333
0.292,-0.008199999
0.294,0.4699999
0.296,0.4580666
0.298,-0.0028
0.3,-0.001733333
0.302,0.4721333
0.304,0.4732666
0.306,-0.004999999
0.308,0.0004666666
0.31,0.4667333
0.312,0.4493999
0.314,-0.001733333
0.316,-0.003866666
0.318,0.4656666
0.32,0.4656666
0.322,-0.004999999
0.324,-0.0005999999
0.326,0.4710666
0.328,-0.0028
0.33,0.4678
0.332,-0.0028
0.334,0.4450666
0.336,0.4840666
0.338,-0.0005999999
0.34,-0.008199999
0.342,0.3983999
0.34400000000000003,0.0004666666
0.34600000000000003,0.4852
0.34800000000000003,-0.004999999
0.35000000000000003,0.4461333
0.352,0.4689333
0.354,-0.004999999
0.356,-0.0028
0.358,0.4580666
0.36,0.4634666
0.362,0.0004666666
0.364,-0.009333332
0.366,0.4418
0.368,0.0004666666
0.37,0.4689333
0.372,0.3810666
0.374,-0.004999999
0.376,-0.006066666
0.378,0.4678
0.38,0.4580666
0.382,-0.0028
0.384,-0.004999999
0.386,0.4786666
0.388,-0.004999999
0.39,0.4656666
0.392,-0.008199999
0.394,0.4418
0.396,0.4548
0.398,0.0004666666
0.4,-0.004999999
0.402,0.4634666
0.404,0.4743333
0.406,-0.0104
0.40800000000000003,-0.004999999
0.41000000000000003,0.4710666
0.41200000000000003,0.4418
0.41400000000000003,-0.0028
0.41600000000000004,-0.0005999999
0.418,0.4580666
0.42,0.4624
0.422,-0.008199999
0.424,-0.009333332
0.426,0.4515333
0.428,0.0026
0.43,0.4678
0.432,0.4092666
0.434,-0.004999999
0.436,0.4493999
0.438,-0.0028
0.44,0.4309333
0.442,-0.006066666
0.444,-0.006066666
0.446,0.4472
0.448,0.4233333
0.45,-0.008199999
0.452,-0.006066666
0.454,0.4602
0.456,0.4624
0.458,-0.006066666
0.46,-0.0005999999
0.462,0.4689333
0.464,0.4396
0.466,-0.007133333
0.468,0.4515333
0.47000000000000003,-0.007133333
0.47200000000000003,0.3604666
0.47400000000000003,-0.004999999
0.47600000000000003,0.4591333
0.47800000000000004,-0.006066666
0.48,-0.0028
0.482,0.4645333
0.484,-0.004999999
0.486,0.4288
0.488,-0.004999999
0.49,0.4374666
0.492,-0.0028
0.494,0.4201333
0.496,-0.0028
0.498,0.4364
0.5,-0.007133333
0.502,0.4070666
0.504,0.001533333
0.506,0.4634666
0.508,-0.008199999
0.51,0.4157999
0.512,0.0004666666
0.514,0.4439333
0.516,0.4537333
0.518,-0.008199999
0.52,0.4667333
0.522,0.0004666666
0.524,-0.008199999
0.526,0.4265999
0.528,0.4504666
0.53,-0.0005999999
0.532,-0.0028
0.534,0.4548
0.536,0.4418
0.538,-0.009333332
0.54,-0.007133333
0.542,0.4222666
0.544,-0.004999999
0.546,0.4526666
0.548,0.4710666
0.55,-0.004999999
0.552,-0.004999999
0.554,0.4710666
0.556,0.4548
0.558,-0.004999999
0.56,-0.01473333
0.562,0.457
0.5640000000000001,0.4667333
0.5660000000000001,-0.0028
0.5680000000000001,0.0004666666
0.5700000000000001,0.4819333
0.5720000000000001,0.4298666
0.5740000000000001,-0.008199999
0.5760000000000001,-0.008199999
0.578,0.4634666
0.58,0.0004666666
0.582,0.4493999
0.584,-0.003866666
0.586,0.4667333
0.588,0.4721333
0.59,-0.0005999999
0.592,0.4342
0.594,-0.009333332
0.596,0.4634666
0.598,-0.0005999999
0.6,0.3886666
0.602,-0.003866666
0.604,-0.0028
0.606,0.4764666
0.608,0.3940666
0.61,-0.004999999
0.612,0.0004666666
0.614,0.4526666
0.616,0.4439333
0.618,-0.004999999
0.62,-0.003866666
0.622,0.4732666
0.624,-0.01146667
0.626,0.4493999
0.628,-0.004999999
0.63,0.4450666
0.632,-0.008199999
0.634,0.3940666
0.636,-0.0028
0.638,0.4580666
0.64,0.4526666
0.642,-0.018
0.644,-0.006066666
0.646,0.4580666
0.648,-0.006066666
0.65,0.4168666
0.652,0.3983999
0.654,-0.0104
0.656,-0.008199999
0.658,0.4201333
0.66,-0.01146667
0.662,0.4233333
0.664,-0.001733333
0.666,0.4092666
0.668,0.4710666
0.67,-0.0005999999
0.672,0.4515333
0.674,-0.004999999
0.676,-0.009333332
0.678,0.4157999
0.68,0.4775999
0.682,0.0004666666
0.684,-0.007133333
0.686,0.4558666
0.6880000000000001,0.4537333
0.6900000000000001,-0.0005999999
0.6920000000000001,0.4526666
0.6940000000000001,-0.0104
0.6960000000000001,0.3821333
0.6980000000000001,-0.01146667
0.7000000000000001,0.4504666
0.7020000000000001,-0.0005999999
0.704,-0.008199999
0.706,0.4450666
0.708,0.4396
0.71,-0.009333332
0.712,-0.0104
0.714,0.4222666
0.716,0.4504666
0.718,-0.0104
0.72,-0.0028
0.722,0.4396
0.724,0.4461333
0.726,-0.0028
0.728,-0.007133333
0.73,0.4764666
0.732,0.432
0.734,-0.001733333
0.736,-0.006066666
0.738,0.4331333
0.74,0.4591333
0.742,-0.007133333
0.744,-0.008199999
0.746,0.4070666
0.748,-0.008199999
0.75,0.4710666
0.752,-0.007133333
0.754,0.4201333
0.756,0.0004666666
0.758,0.4504666
0.76,-0.008199999
0.762,0.3767333
0.764,-0.009333332
0.766,0.4146666
0.768,-0.004999999
0.77,0.3528666
0.772,-0.0028
0.774,0.4439333
0.776,-0.0028
0.778,0.4732666
0.78,-0.0028
0.782,0.4526666
0.784,-0.008199999
0.786,0.4504666
0.788,-0.0104
0.79,0.4775999
0.792,-0.006066666
0.794,0.3734666
0.796,0.4743333
0.798,-0.006066666
0.8,0.4038666
0.802,-0.0104
0.804,-0.007133333
0.806,0.4493999
0.808,-0.01253333
0.81,0.4146666
0.812,-0.004999999
0.8140000000000001,0.4482666
0.8160000000000001,-0.006066666
0.8180000000000001,0.4157999
0.8200000000000001,-0.01366667
0.8220000000000001,0.4364
0.8240000000000001,-0.0005999999
0.8260000000000001,0.4526666
0.8280000000000001,-0.004999999
0.8300000000000001,0.4461333
0.8320000000000001,0.4385333
0.834,-0.004999999
0.836,0.4493999
0.838,-0.004999999
0.84,-0.008199999
0.842,0.4331333
0.844,-0.004999999
0.846,0.4775999
0.848,0.3767333
0.85,-0.008199999
0.852,-0.003866666
0.854,0.4591333
0.856,0.4721333
0.858,-0.006066666
0.86,0.4667333
0.862,-0.006066666
0.864,-0.0005999999
0.866,0.4342
0.868,-0.0028
0.87,0.4786666
0.872,-0.006066666
0.874,0.432
0.876,0.4753999
0.878,0.0026
0.88,0.4689333
0.882,-0.003866666
0.884,-0.0028
0.886,0.4938666
0.888,0.0004666666
0.89,0.4873333
0.892,0.4027333
0.894,-0.006066666
0.896,-0.006066666
0.898,0.483
0.9,-0.007133333
0.902,0.4580666
0.904,-0.008199999
0.906,0.4613333
0.908,-0.004999999
0.91,0.4526666
0.912,-0.007133333
0.914,0.4331333
0.916,-0.004999999
0.918,0.4450666
0.92,0.4114
0.922,-0.009333332
0.924,-0.003866666
0.926,0.4840666
0.928,-0.006066666
0.93,0.4602
0.932,0.4743333
0.934,-0.006066666
0.936,0.4634666
0.9380000000000001,-0.004999999
0.9400000000000001,-0.004999999
0.9420000000000001,0.4710666
0.9440000000000001,-0.001733333
0.9460000000000001,0.4927333
0.9480000000000001,0.4819333
0.9500000000000001,-0.0028
0.9520000000000001,-0.0104
0.9540000000000001,0.3778
0.9560000000000001,0.4201333
0.9580000000000001,-0.0104
0.96,0.4331333
0.962,-0.008199999
0.964,-0.001733333
0.966,0.4667333
0.968,0.4656666
0.97,-0.008199999
0.972,-0.0028
0.974,0.4580666
0.976,0.4786666
0.978,0.001533333
0.98,-0.003866666
0.982,0.4591333
0.984,0.4927333
0.986,-0.0005999999
0.988,-0.007133333
0.99,0.4938666
0.992,-0.004999999
0.994,0.496
0.996,0.001533333
0.998,0.5035999
1.0,0.4873333
1.002,-0.006066666
1.004,-0.008199999
1.006,0.4472
1.008,-0.0028
1.01,0.483
1.012,-0.006066666
1.014,0.4136
1.016,0.4265999
1.018,-0.006066666
1.02,0.4364
1.022,-0.007133333
1.024,-0.008199999
1.026,0.4927333
1.028,0.0004666666
1.03,0.496
1.032,0.4439333
1.034,-0.0104
1.036,-0.0005999999
1.038,0.5133333
1.04,0.5188
1.042,-0.0028
1.044,0.0004666666
1.046,0.496
1.048,-0.0028
1.05,0.4807999
1.052,0.4613333
1.054,-0.006066666
1.056,-0.008199999
1.058,0.4927333
1.06,0.4558666
1.062,-0.001733333
1.064,-0.004999999
1.066,0.4906
1.068,-0.0028
1.07,0.4613333
1.072,-0.006066666
1.074,0.4396
1.076,-0.0158
1.078,0.5035999
1.08,-0.0028
1.082,0.4342
1.084,-0.006066666
1.086,0.4493999
1.088,-0.0028
1.09,0.4884
1.092,0.0026
1.094,0.5046666
1.096,-0.0005999999
1.098,0.5035999
1.1,-0.0005999999
1.102,0.4906
1.104,-0.0005999999
1.106,0.5144666
1.108,-0.004999999
1.11,0.4916666
1.112,-0.003866666
1.114,0.4385333
1.116,0.4753999
1.118,-0.006066666
1.12,0.496
1.122,-0.003866666
1.124,-0.004999999
1.1260000000000001,0.4884
1.1280000000000001,-0.01146667
1.1300000000000001,0.4396
1.1320000000000001,-0.004999999
1.1340000000000001,0.4114
1.1360000000000001,-0.003866666
1.1380000000000001,0.4819333
1.1400000000000001,-0.0028
1.1420000000000001,0.4732666
1.1440000000000001,0.0026
1.1460000000000001,0.4992666
1.1480000000000001,0.001533333
1.1500000000000001,0.5013999
1.1520000000000001,0.4906
1.154,0.0004666666
1.156,0.5144666
1.158,-0.0028
1.16,-0.01366667
1.162,0.4862666
1.164,-0.004999999
1.166,0.5003333
1.168,-0.006066666
1.17,0.4211999
1.172,-0.0104
1.174,0.4840666
1.176,0.483
1.178,-0.009333332
1.18,0.4049333
1.182,-0.008199999
1.184,0.4439333
1.186,-0.0104
1.188,-0.006066666
1.19,0.5133333
1.192,-0.006066666
1.194,0.4645333
1.196,0.5013999
1.198,-0.0028
1.2,0.4840666
1.202,-0.0028
1.204,0.0004666666
1.206,0.4667333
1.208,0.001533333
1.21,0.4678
1.212,0.4873333
1.214,-0.008199999
1.216,0.5133333
1.218,-0.003866666
1.22,-0.004999999
1.222,0.4634666
1.224,-0.004999999
1.226,0.4580666
1.228,-0.008199999
1.23,0.4428666
1.232,-0.008199999
1.234,0.4689333
1.236,-0.006066666
1.238,0.4656666
1.24,-0.007133333
1.242,0.4396
1.244,-0.009333332
1.246,0.483
1.248,0.0026
1.25,0.4949333
1.252,-0.0005999999
1.254,0.4515333
1.256,0.004799999
1.258,0.4689333
1.26,0.4624
1.262,-0.007133333
1.264,-0.004999999
1.266,0.5025333
1.268,-0.01146667
1.27,0.4418
1.272,-0.006066666
1.274,0.4548
1.276,0.4906
1.278,-0.01146667
1.28,0.4526666
1.282,-0.008199999
1.284,0.3528666
1.286,-0.007133333
1.288,-0.0028
1.29,0.4634666
1.292,-0.0028
1.294,0.4558666
1.296,-0.007133333
1.298,0.4656666
1.3,0.419
1.302,-0.0028
1.304,-0.001733333
1.306,0.496
1.308,0.4667333
1.31,-0.0028
1.312,-0.009333332
1.314,0.4895333
1.316,0.4753999
1.318,-0.003866666
1.32,0.4775999
1.322,-0.004999999
1.324,-0.008199999
1.326,0.4624
1.328,-0.01366667
1.33,0.4613333
1.332,-0.01473333
1.334,0.3582666
1.336,-0.009333332
1.338,0.4461333
1.34,-0.006066666
1.342,0.4201333
1.344,-0.007133333
1.346,0.4602
1.348,0.001533333
1.35,0.4331333
1.352,0.4906
1.354,-0.007133333
1.356,0.4504666
1.358,-0.0028
1.36,0.001533333
1.362,0.4678
1.364,0.0026
1.366,0.4753999
1.368,-0.0028
1.37,0.4710666
1.372,-0.009333332
1.374,0.4114
1.3760000000000001,0.4689333
1.3780000000000001,-0.003866666
1.3800000000000001,0.4548
1.3820000000000001,-0.008199999
1.3840000000000001,-0.008199999
1.3860000000000001,0.4689333
1.3880000000000001,0.3788666
1.3900000000000001,-0.004999999
1.3920000000000001,0.3876
1.3940000000000001,-0.0104
1.3960000000000001,-0.01146667
1.3980000000000001,0.4114
1.4000000000000001,-0.008199999
1.4020000000000001,0.4244666
1.4040000000000001,-0.004999999
1.4060000000000001,0.4157999
1.408,-0.006066666
1.41,0.4775999
1.412,-0.0028
1.414,0.4352666
1.416,0.4482666
1.418,0.0004666666
1.42,-0.01366667
1.422,0.4385333
1.424,-0.004999999
1.426,0.4428666
1.428,-0.006066666
1.43,0.3713333
1.432,-0.01253333
1.434,0.4364
1.436,0.4472
1.438,-0.008199999
1.44,0.38
1.442,-0.006066666
1.444,0.4179333
1.446,-0.01473333
1.448,-0.006066666
1.45,0.4482666
1.452,-0.006066666
1.454,0.4070666
1.456,-0.01146667
1.458,0.4385333
1.46,-0.0028
1.462,0.4602
1.464,0.4092666
1.466,-0.01253333
1.468,0.0004666666
1.47,0.4732666
1.472,0.4667333
1.474,-0.006066666
1.476,0.4352666
1.478,-0.007133333
1.48,0.4146666
1.482,-0.007133333
1.484,-0.006066666
1.486,0.4439333
1.488,-0.006066666
1.49,0.457
1.492,-0.01253333
1.494,0.4298666
1.496,-0.009333332
1.498,0.4493999
1.5,0.3333333
1.502,-0.009333332
1.504,-0.0104
1.506,0.4504666
1.508,-0.003866666
1.51,0.4244666
1.512,-0.008199999
1.514,0.4710666
1.516,0.4689333
1.518,-0.004999999
1.52,0.4927333
1.522,0.005866666
1.524,-0.004999999
1.526,0.4407333
1.528,0.4906
1.53,-0.003866666
1.532,-0.01146667
1.534,0.4211999
1.536,0.4493999
1.538,-0.006066666
1.54,0.4634666
1.542,-0.01146667
1.544,0.4450666
1.546,-0.008199999
1.548,-0.009333332
1.55,0.4265999
1.552,-0.003866666
1.554,0.4895333
1.556,0.4146666
1.558,-0.008199999
1.56,-0.008199999
1.562,0.4548
1.564,-0.006066666
1.566,0.4146666
1.568,-0.006066666
1.57,0.4873333
1.572,0.4667333
1.574,0.0004666666
1.576,-0.008199999
1.578,0.4938666
1.58,0.5035999
1.582,-0.006066666
1.584,-0.0028
1.586,0.4689333
1.588,-0.007133333
1.59,0.4082
1.592,-0.008199999
1.594,0.4407333
1.596,0.4602
1.598,-0.006066666
1.6,0.3756666
1.602,-0.008199999
1.604,0.4775999
1.606,-0.004999999
1.608,0.4179333
1.61,-0.0028
1.612,0.4157999
1.614,-0.0158
1.616,0.001533333
1.618,0.483
1.62,-0.006066666
1.622,0.4526666
1.624,-0.0028
1.6260000000000001,0.4916666
1.6280000000000001,0.001533333
1.6300000000000001,0.5013999
1.6320000000000001,0.001533333
1.6340000000000001,0.5013999
1.6360000000000001,0.4645333
1.6380000000000001,-0.01146667
1.6400000000000001,0.4699999
1.6420000000000001,-0.008199999
1.6440000000000001,-0.0104
1.6460000000000001,0.483
1.6480000000000001,-0.008199999
1.6500000000000001,0.4222666
1.6520000000000001,-0.01146667
1.6540000000000001,0.4580666
1.6560000000000001,-0.01253333
1.6580000000000001,0.4884
1.6600000000000001,-0.01146667
1.6620000000000001,0.3366
1.6640000000000001,0.0004666666
1.666,0.4807999
1.668,-0.0028
1.67,0.4439333
1.672,-0.0028
1.674,0.4385333
1.676,0.483
1.678,-0.0028
1.68,0.4906
1.682,-0.0005999999
1.684,-0.008199999
1.686,0.483
1.688,0.4981999
1.69,-0.001733333
1.692,-0.009333332
1.694,0.419
1.696,0.4721333
1.698,-0.006066666
1.7,0.4537333
1.702,-0.006066666
1.704,-0.01253333
1.706,0.4591333
1.708,-0.01473333
1.71,0.4938666
1.712,0.3464
1.714,-0.006066666
1.716,0.4450666
1.718,-0.006066666
1.72,-0.008199999
1.722,0.4233333
1.724,-0.0028
1.726,0.4797333
1.728,-0.0005999999
1.73,0.4526666
1.732,0.4721333
1.734,-0.006066666
1.736,-0.0005999999
1.738,0.4710666
1.74,0.4504666
1.742,-0.003866666
1.744,-0.003866666
1.746,0.4852
1.748,-0.009333332
1.75,0.4515333
1.752,-0.009333332
1.754,0.4103333
1.756,-0.004999999
1.758,0.432
1.76,-0.009333332
1.762,0.3561333
1.764,-0.01146667
1.766,0.4526666
1.768,0.4114
1.77,-0.007133333
1.772,0.4689333
1.774,-0.007133333
1.776,-0.0028
1.778,0.4775999
1.78,-0.0028
1.782,0.4721333
1.784,-0.0104
1.786,0.4656666
1.788,-0.006066666
1.79,0.496
1.792,-0.0028
1.794,0.4342
1.796,0.4689333
1.798,-0.004999999
1.8,0.4472
1.802,-0.0028
1.804,-0.007133333
1.806,0.4288
1.808,-0.0104
1.81,0.3702
1.812,-0.0104
1.814,0.4775999
1.816,0.4482666
1.818,-0.0158
1.82,-0.0104
1.822,0.4689333
1.824,-0.0028
1.826,0.4689333
1.828,-0.018
1.83,0.483
1.832,-0.004999999
1.834,0.4852
1.836,0.4548
1.838,0.003733333
1.84,-0.0028
1.842,0.4743333
1.844,0.0004666666
1.846,0.4916666
1.848,0.4125333
1.85,-0.009333332
1.852,-0.0104
1.854,0.4613333
1.856,0.4613333
1.858,-0.008199999
1.86,0.3691333
1.862,-0.007133333
1.864,0.4450666
1.866,-0.004999999
1.868,-0.004999999
1.87,0.483
1.872,0.4548
1.874,-0.0028
1.8760000000000001,0.4396
1.8780000000000001,-0.008199999
1.8800000000000001,0.4526666
1.8820000000000001,-0.0104
1.8840000000000001,-0.0104
1.8860000000000001,0.4775999
1.8880000000000001,0.4613333
1.8900000000000001,-0.0028
1.8920000000000001,-0.0028
1.8940000000000001,0.4602
1.8960000000000001,0.4786666
1.8980000000000001,-0.0005999999
1.9000000000000001,0.4906
1.9020000000000001,-0.001733333
1.9040000000000001,0.4786666
1.9060000000000001,-0.0028
1.9080000000000001,-0.003866666
1.9100000000000001,0.4125333
1.9120000000000001,-0.0104
1.9140000000000001,0.4450666
1.9160000000000001,-0.009333332
1.9180000000000001,0.4602
1.92,-0.01686667
1.922,0.4364
1.924,-0.007133333
1.926,0.4537333
1.928,0.3572
1.93,-0.0104
1.932,-0.0005999999
1.934,0.4732666
1.936,0.483
1.938,-0.003866666
1.94,0.0026
1.942,0.4721333
1.944,-0.004999999
1.946,0.483
1.948,0.4558666
1.95,-0.004999999
1.952,-0.008199999
1.954,0.4656666
1.956,0.483
1.958,-0.003866666
1.96,0.4472
1.962,-0.01146667
1.964,0.432
1.966,-0.01146667
1.968,0.4418
1.97,-0.006066666
1.972,-0.003866666
1.974,0.4558666
1.976,0.4374666
1.978,-0.008199999
1.98,-0.009333332
1.982,0.4624
1.984,-0.004999999
1.986,0.4439333
1.988,-0.0028
1.99,0.4775999
1.992,0.0004666666
1.994,0.4504666
1.996,-0.008199999
1.998,0.3170666
2.0,-0.0028
2.0020000000000002,0.4352666
2.004,-0.0028
2.0060000000000002,0.4136
2.008,0.432
2.0100000000000002,-0.0005999999
2.012,-0.0028
2.0140000000000002,0.4298666
2.016,0.4331333
2.0180000000000002,0.0004666666
2.02,-0.0028
2.0220000000000002,0.4244666
2.024,0.4504666
2.0260000000000002,-0.001733333
2.028,-0.0005999999
2.0300000000000002,0.4721333
2.032,0.0004666666
2.0340000000000003,0.4634666
2.036,0.5025333
2.0380000000000003,-0.0005999999
2.04,-0.0005999999
2.0420000000000003,0.4439333
2.044,0.4482666
2.0460000000000003,-0.003866666
2.048,-0.0028
2.05,0.4276666
2.052,0.4461333
2.054,-0.0005999999
2.056,0.0026
2.058,0.4645333
2.06,0.4439333
2.062,0.0004666666
2.064,-0.0028
2.066,0.4439333
2.068,0.457
2.07,-0.01366667
2.072,-0.0005999999
2.074,0.4515333
2.076,0.4558666
2.078,-0.01146667
2.08,-0.0028
2.082,0.4764666
2.084,0.4602
2.086,-0.006066666
2.088,0.4656666
2.09,-0.006066666
2.092,0.4548
2.094,-0.0028
2.096,-0.006066666
2.098,0.4678
2.1,-0.0028
2.102,0.457
2.104,0.4374666
2.106,0.0004666666
2.108,0.001533333
2.11,0.4602
2.112,0.4515333
2.114,0.0004666666
2.116,0.0004666666
2.118,0.4613333
2.12,0.4157999
2.122,-0.008199999
2.124,0.0004666666
2.126,0.4819333
2.128,-0.0028
2.13,0.3821333
2.132,-0.003866666
2.134,0.4656666
2.136,0.4602
2.138,-0.006066666
2.14,-0.008199999
2.142,0.4493999
2.144,0.4689333
2.146,0.0026
2.148,-0.004999999
2.15,0.4504666
2.152,0.4764666
2.154,0.001533333
2.156,0.3983999
2.158,-0.0028
2.16,-0.008199999
2.162,0.4699999
2.164,-0.0028
2.166,0.4103333
2.168,-0.001733333
2.17,0.4732666
2.172,-0.004999999
2.174,0.4667333
2.176,0.004799999
2.178,0.4634666
2.18,-0.003866666
2.182,0.4385333
2.184,0.4656666
2.186,0.001533333
2.188,-0.004999999
2.19,0.4309333
2.192,0.4710666
2.194,-0.0028
2.196,0.4439333
2.198,0.0004666666
2.2,-0.0028
2.202,0.4753999
2.204,0.4840666
2.206,-0.008199999
2.208,-0.0028
2.21,0.4775999
2.212,0.4852
2.214,-0.004999999
2.216,0.001533333
2.218,0.457
2.22,0.4689333
2.222,-0.004999999
2.224,-0.0028
2.226,0.4634666
2.228,0.4364
2.23,-0.009333332
2.232,-0.001733333
2.234,0.4689333
2.236,0.4656666
2.238,-0.0005999999
2.24,-0.006066666
2.242,0.4678
2.244,0.4580666
2.246,-0.0028
2.248,-0.004999999
2.25,0.4548
2.2520000000000002,0.4786666
2.254,-0.0028
2.2560000000000002,-0.004999999
2.258,0.4656666
2.2600000000000002,-0.008199999
2.262,0.4548
2.2640000000000002,-0.004999999
2.266,0.3995333
2.2680000000000002,-0.0028
2.27,0.4743333
2.2720000000000002,0.3843333
2.274,-0.0104
2.2760000000000002,-0.0005999999
2.278,0.4710666
2.2800000000000002,-0.0028
2.282,0.4222666
2.2840000000000003,-0.0005999999
2.286,0.4624
2.2880000000000003,0.3908
2.29,-0.009333332
2.2920000000000003,0.4515333
2.294,0.0026
2.2960000000000003,0.4678
2.298,-0.003866666
2.3000000000000003,-0.004999999
2.302,0.4493999
2.3040000000000003,0.4407333
2.306,-0.003866666
2.308,-0.006066666
2.31,0.4244666
2.312,0.4472
2.314,-0.006066666
2.316,-0.008199999
2.318,0.4006
2.32,0.4624
2.322,0.003733333
2.324,-0.006066666
2.326,0.4342
2.328,0.4689333
2.33,-0.001733333
2.332,-0.007133333
2.334,0.4461333
2.336,0.4515333
2.338,-0.007133333
2.34,-0.004999999
2.342,0.4548
2.344,0.4591333
2.346,-0.006066666
2.348,0.4645333
2.35,-0.004999999
2.352,0.4288
2.354,-0.004999999
2.356,0.4374666
2.358,-0.0028
2.36,-0.0028
2.362,0.4342
2.364,0.4364
2.366,-0.007133333
2.368,0.0004666666
2.37,0.4504666
2.372,0.4634666
2.374,-0.008199999
2.376,0.0004666666
2.378,0.4418
2.38,-0.0005999999
2.382,0.4537333
2.384,-0.008199999
2.386,0.4667333
2.388,0.4352666
2.39,-0.008199999
2.392,0.4504666
2.394,-0.0005999999
2.396,-0.0028
2.398,0.4548
2.4,-0.006066666
2.402,0.4418
2.404,-0.009333332
2.406,0.419
2.408,0.4222666
2.41,-0.004999999
2.412,-0.0005999999
2.414,0.4710666
2.416,-0.004999999
2.418,0.4168666
2.42,0.4710666
2.422,-0.001733333
2.424,0.4136
2.426,-0.004999999
2.428,-0.01473333
2.43,0.4667333
2.432,-0.0028
2.434,0.4526666
2.436,0.4819333
2.438,-0.0005999999
2.44,-0.008199999
2.442,0.4602
2.444,-0.006066666
2.446,0.4634666
2.448,0.3691333
2.45,-0.003866666
2.452,0.4667333
2.454,0.001533333
2.456,0.4721333
2.458,-0.006066666
2.46,-0.009333332
2.462,0.4634666
2.464,0.4201333
2.466,-0.0028
2.468,-0.003866666
2.47,0.4753999
2.472,0.4764666
2.474,-0.004999999
2.476,-0.0028
2.478,0.4526666
2.48,0.4482666
2.482,-0.0028
2.484,-0.004999999
2.486,0.4732666
2.488,0.4656666
2.49,-0.01146667
2.492,0.4493999
2.494,-0.004999999
2.496,0.4374666
2.498,-0.008199999
2.5,-0.008199999
2.5020000000000002,0.4580666
2.504,-0.0028
2.5060000000000002,0.4526666
2.508,-0.018
2.5100000000000002,0.4504666
2.512,0.4580666
2.5140000000000002,-0.006066666
2.516,0.4157999
2.5180000000000002,-0.0104
2.52,-0.006066666
2.5220000000000002,0.4179333
2.524,-0.008199999
2.5260000000000002,0.4201333
2.528,-0.01146667
2.5300000000000002,0.4233333
2.532,0.0004666666
2.5340000000000003,0.4710666
2.536,-0.0005999999
2.5380000000000003,0.4515333
2.54,0.4168666
2.5420000000000003,-0.009333332
2.544,-0.0028
2.5460000000000003,0.4775999
2.548,-0.007133333
2.5500000000000003,0.3983999
2.552,0.4558666
2.5540000000000003,0.0004666666
2.556,-0.007133333
2.5580000000000003,0.4526666
2.56,-0.0104
2.562,0.3821333
2.564,-0.01146667
2.566,0.4504666
2.568,-0.008199999
2.57,0.4450666
2.572,0.4439333
2.574,-0.0028
2.576,-0.009333332
2.578,0.3528666
2.58,-0.0104
2.582,0.4504666
2.584,-0.0104
2.586,0.3897333
2.588,-0.001733333
2.59,0.4461333
2.592,0.3951333
2.594,-0.007133333
2.596,0.4764666
2.598,-0.0005999999
2.6,-0.006066666
2.602,0.4211999
2.604,-0.0005999999
2.606,0.4591333
2.608,0.3908
2.61,-0.008199999
2.612,0.4070666
2.614,-0.008199999
2.616,0.4710666
2.618,-0.007133333
2.62,-0.007133333
2.622,0.4201333
2.624,0.4504666
2.626,-0.008199999
2.628,-0.009333332
2.63,0.3995333
2.632,-0.007133333
2.634,0.4146666
2.636,-0.004999999
2.638,0.4439333
2.64,0.4493999
2.642,-0.0028
2.644,0.4732666
2.646,-0.0028
2.648,0.4364
2.65,-0.008199999
2.652,0.0004666666
2.654,0.4526666
2.656,-0.0104
2.658,0.4775999
2.66,-0.003866666
2.662,0.4743333
2.664,-0.006066666
2.666,0.4038666
2.668,-0.0104
2.67,0.4396
2.672,0.4493999
2.674,-0.01253333
2.676,0.4136
2.678,-0.003866666
2.68,0.4482666
2.682,-0.006066666
2.684,0.4157999
2.686,-0.009333332
2.688,-0.01366667
2.69,0.4364
2.692,0.4526666
2.694,-0.004999999
2.696,0.0004666666
2.698,0.4461333
2.7,-0.004999999
2.702,0.4493999
2.704,0.4396
2.706,-0.008199999
2.708,-0.004999999
2.71,0.3995333
2.712,0.4775999
2.714,-0.008199999
2.716,0.3713333
2.718,-0.003866666
2.72,-0.0028
2.722,0.4721333
2.724,-0.006066666
2.726,0.4667333
2.728,-0.006066666
2.73,0.4342
2.732,-0.0028
2.734,0.4786666
2.736,0.3713333
2.738,-0.006066666
2.74,-0.001733333
2.742,0.4753999
2.744,0.4689333
2.746,-0.0028
2.748,-0.003866666
2.75,0.4548
2.7520000000000002,-0.0005999999
2.754,0.4938666
2.7560000000000002,0.4873333
2.758,-0.0005999999
2.7600000000000002,-0.006066666
2.762,0.483
2.7640000000000002,-0.007133333
2.766,0.4580666
2.7680000000000002,-0.008199999
2.77,0.406
2.7720000000000002,0.4613333
2.774,-0.004999999
2.7760000000000002,0.4526666
2.778,-0.007133333
2.7800000000000002,-0.006066666
2.782,0.4331333
2.7840000000000003,0.4450666
2.786,-0.008199999
2.7880000000000003,-0.009333332
2.79,0.4244666
2.7920000000000003,0.4840666
2.794,-0.006066666
2.7960000000000003,-0.006066666
2.798,0.4743333
2.8000000000000003,0.4721333
2.802,-0.006066666
2.8040000000000003,-0.004999999
2.806,0.4591333
2.8080000000000003,-0.004999999
2.81,0.4710666
2.8120000000000003,0.4927333
2.814,0.0026
2.816,0.4721333
2.818,-0.008199999
2.82,-0.0104
2.822,0.4201333
2.824,-0.0104
2.826,0.4331333
2.828,-0.008199999
2.83,0.457
2.832,0.4667333
2.834,-0.004999999
2.836,0.4418
2.838,-0.008199999
2.84,-0.0028
2.842,0.4786666
2.844,0.4364
2.846,0.0004666666
2.848,-0.003866666
2.85,0.4775999
2.852,0.4927333
2.854,-0.007133333
2.856,0.4938666
2.858,-0.004999999
2.86,-0.004999999
2.862,0.5035999
2.864,0.0026
2.866,0.4873333
2.868,0.406
2.87,-0.008199999
2.872,0.4472
2.874,-0.0028
2.876,0.483
2.878,0.001533333
2.88,-0.006066666
2.882,0.4265999
2.884,-0.006066666
2.886,0.4364
2.888,-0.008199999
2.89,0.4927333
2.892,0.0004666666
2.894,0.496
2.896,0.4721333
2.898,-0.0028
2.9,-0.0104
2.902,0.5133333
2.904,0.008066666
2.906,0.5188
2.908,-0.0028
2.91,0.4775999
2.912,0.496
2.914,-0.0028
2.916,0.4807999
2.918,0.0026
2.92,-0.008199999
2.922,0.4927333
2.924,-0.0028
2.926,0.4558666
2.928,-0.004999999
2.93,0.4168666
2.932,0.4906
2.934,-0.0028
2.936,0.4613333
2.938,-0.006066666
2.94,0.4396
2.942,-0.004999999
2.944,-0.0158
2.946,0.5035999
2.948,0.4342
2.95,-0.003866666
2.952,-0.006066666
2.954,0.4493999
2.956,-0.0005999999
2.958,0.4884
2.96,0.5046666
2.962,-0.0005999999
2.964,0.5035999
2.966,0.001533333
2.968,-0.0005999999
2.97,0.496
2.972,0.5144666
2.974,-0.004999999
2.976,-0.004999999
2.978,0.4916666
2.98,-0.003866666
2.982,0.4753999
2.984,-0.006066666
2.986,0.496
2.988,-0.004999999
2.99,0.4884
2.992,-0.01146667
2.994,0.4396
2.996,-0.006066666
2.998,0.3962666
3.0,-0.003866666
3.0020000000000002,0.4743333
3.004,0.4819333
3.0060000000000002,-0.0028
3.008,-0.0005999999
3.0100000000000002,0.4732666
3.012,0.001533333
3.0140000000000002,0.5013999
3.016,0.0026
3.0180000000000002,0.4906
3.02,0.0004666666
3.0220000000000002,0.5144666
3.024,0.4895333
3.0260000000000002,-0.01366667
3.028,-0.004999999
3.0300000000000002,0.4743333
3.032,0.5003333
3.0340000000000003,-0.006066666
3.036,0.4211999
3.0380000000000003,-0.008199999
3.04,-0.0104
3.0420000000000003,0.4840666
3.044,0.4461333
3.0460000000000003,-0.008199999
3.048,0.4439333
3.0500000000000003,-0.0104
3.052,-0.0104
3.0540000000000003,0.5133333
3.056,0.5013999
3.0580000000000003,-0.006066666
3.06,0.0004666666
3.0620000000000003,0.5013999
3.064,-0.0028
3.0660000000000003,0.4840666
3.068,0.4689333
3.0700000000000003,0.0004666666
3.072,0.4656666
3.074,0.001533333
3.076,0.4873333
3.078,-0.007133333
3.08,-0.008199999
3.082,0.5133333
3.084,-0.004999999
3.086,0.4634666
3.088,-0.004999999
3.09,0.4580666
3.092,0.4331333
3.094,-0.008199999
3.096,0.4428666
3.098,-0.008199999
3.1,0.4689333
3.102,-0.006066666
3.104,0.4656666
3.106,-0.007133333
3.108,0.4396
3.11,-0.009333332
3.112,0.0026
3.114,0.483
3.116,0.4949333
3.118,-0.0005999999
3.12,0.0004666666
3.122,0.4689333
3.124,0.4656666
3.126,-0.0005999999
3.128,-0.007133333
3.13,0.4396
3.132,0.5025333
3.134,-0.0028
3.136,-0.01146667
3.138,0.4418
3.14,-0.006066666
3.142,0.4906
3.144,-0.01146667
3.146,0.4526666
3.148,0.4027333
3.15,-0.008199999
3.152,-0.007133333
3.154,0.4634666
3.156,-0.0028
3.158,0.4558666
3.16,-0.007133333
3.162,0.4656666
3.164,-0.0028
3.166,0.4396
3.168,-0.001733333
3.17,0.496
3.172,0.4721333
3.174,0.0004666666
3.176,-0.009333332
3.178,0.4895333
3.18,-0.004999999
3.182,0.4753999
3.184,-0.003866666
3.186,0.4775999
3.188,-0.008199999
3.19,0.4396
3.192,0.4624
3.194,-0.01366667
3.196,0.4613333
3.198,-0.01146667
3.2,-0.01473333
3.202,0.3582666
3.204,-0.009333332
3.206,0.4461333
3.208,0.4526666
3.21,-0.004999999
3.212,-0.007133333
3.214,0.4602
3.216,0.0004666666
3.218,0.4906
3.22,-0.007133333
3.222,0.4504666
3.224,-0.0028
3.226,0.4407333
3.228,0.001533333
3.23,0.4721333
3.232,0.4753999
3.234,-0.001733333
3.236,0.4710666
3.238,-0.009333332
3.24,-0.004999999
3.242,0.4689333
3.244,0.4548
3.246,-0.008199999
3.248,-0.008199999
3.25,0.4580666
3.2520000000000002,0.4689333
3.254,-0.004999999
3.2560000000000002,0.3788666
3.258,-0.006066666
3.2600000000000002,0.3876
3.262,-0.01146667
3.2640000000000002,-0.0104
3.266,0.4114
3.2680000000000002,0.4244666
3.27,-0.004999999
3.2720000000000002,0.4255333
3.274,-0.0028
3.2760000000000002,-0.006066666
3.278,0.4775999
3.2800000000000002,-0.0028
3.282,0.4482666
3.2840000000000003,0.4461333
3.286,-0.01366667
3.2880000000000003,-0.004999999
3.29,0.3897333
3.2920000000000003,0.4428666
3.294,-0.006066666
3.2960000000000003,0.3713333
3.298,-0.01253333
3.3000000000000003,-0.007133333
3.302,0.4472
3.3040000000000003,-0.008199999
3.306,0.38
3.3080000000000003,-0.006066666
3.31,0.4179333
3.3120000000000003,-0.01473333
3.314,0.4482666
3.3160000000000003,-0.006066666
3.318,0.4070666
3.3200000000000003,-0.01146667
3.322,0.4385333
3.3240000000000003,-0.004999999
3.326,0.4157999
3.3280000000000003,0.4602
3.33,-0.001733333
3.332,-0.01253333
3.334,0.4407333
3.336,0.4732666
3.338,0.003733333
3.34,-0.006066666
3.342,0.4352666
3.344,-0.007133333
3.346,0.4146666
3.348,-0.007133333
3.35,0.3734666
3.352,0.4439333
3.354,-0.006066666
3.356,0.457
3.358,-0.0104
3.36,-0.01253333
3.362,0.4298666
3.364,-0.009333332
3.366,0.4493999
3.368,-0.009333332
3.37,0.4439333
3.372,-0.0104
3.374,0.4504666
3.376,0.4342
3.378,-0.008199999
3.38,-0.004999999
3.382,0.4710666
3.384,-0.004999999
3.386,0.4927333
3.388,0.4472
3.39,-0.004999999
3.392,-0.0005999999
3.394,0.4906
3.396,0.4613333
3.398,-0.01146667
3.4,-0.006066666
3.402,0.4493999
3.404,0.4634666
3.406,-0.008199999
3.408,-0.01146667
3.41,0.4450666
3.412,-0.009333332
3.414,0.4265999
3.416,0.3431333
3.418,-0.003866666
3.42,0.4895333
3.422,-0.004999999
3.424,-0.008199999
3.426,0.4082
3.428,-0.008199999
3.43,0.4548
3.432,0.4439333
3.434,-0.004999999
3.436,-0.006066666
3.438,0.4873333
3.44,0.4526666
3.442,-0.0005999999
3.444,-0.008199999
3.446,0.5035999
3.448,-0.006066666
3.45,0.4558666
3.452,0.4689333
3.454,-0.007133333
3.456,0.4082
3.458,-0.006066666
3.46,-0.008199999
3.462,0.4602
3.464,-0.006066666
3.466,0.4070666
3.468,-0.008199999
3.47,0.4775999
3.472,-0.004999999
3.474,0.4179333
3.476,-0.01146667
3.478,0.4157999
3.48,-0.0158
3.482,0.483
3.484,0.4634666
3.486,-0.006066666
3.488,-0.004999999
3.49,0.4916666
3.492,0.4689333
3.494,0.0026
3.496,0.001533333
3.498,0.5013999
3.5,0.4645333
3.5020000000000002,-0.001733333
3.504,-0.01146667
3.5060000000000002,0.4699999
3.508,-0.0104
3.5100000000000002,0.4548
3.512,0.483
3.5140000000000002,-0.008199999
3.516,0.4222666
3.5180000000000002,-0.003866666
3.52,0.4580666
3.5220000000000002,-0.01253333
3.524,-0.0104
3.5260000000000002,0.4884
3.528,-0.01146667
3.5300000000000002,0.3919333
3.532,0.4807999
3.5340000000000003,-0.0005999999
3.536,-0.0028
3.5380000000000003,0.4439333
3.54,-0.0005999999
3.5420000000000003,0.483
3.544,-0.0028
3.5460000000000003,0.4906
3.548,0.4775999
3.5500000000000003,-0.008199999
3.552,-0.0005999999
3.5540000000000003,0.4981999
3.556,0.4656666
3.5580000000000003,-0.0028
3.56,-0.009333332
3.5620000000000003,0.4721333
3.564,-0.006066666
3.5660000000000003,0.4537333
3.568,-0.01253333
3.5700000000000003,0.4428666
3.572,-0.01473333
3.5740000000000003,0.4938666
3.576,0.4342
3.5780000000000003,-0.004999999
3.58,-0.006066666
3.5820000000000003,0.4450666
3.584,-0.006066666
3.586,0.4222666
3.588,-0.008199999
3.59,0.4233333
3.592,-0.001733333
3.594,0.4797333
3.596,-0.0005999999
3.598,0.4721333
3.6,-0.006066666
3.602,0.4710666
3.604,-0.0005999999
3.606,0.4504666
3.608,-0.003866666
3.61,0.4580666
3.612,0.4852
3.614,-0.009333332
3.616,0.4515333
3.618,-0.006066666
3.62,-0.009333332
3.622,0.4103333
3.624,0.432
3.626,-0.009333332
3.628,-0.007133333
3.63,0.4418
3.632,-0.01146667
3.634,0.4526666
3.636,-0.007133333
3.638,0.4689333
3.64,-0.007133333
3.642,0.4667333
3.644,0.4775999
3.646,-0.0028
3.648,-0.0104
3.65,0.4656666
3.652,0.4613333
3.654,-0.006066666
3.656,0.496
3.658,0.0004666666
3.66,-0.0028
3.662,0.4689333
3.664,-0.004999999
3.666,0.4472
3.668,-0.007133333
3.67,0.4288
3.672,0.4201333
3.674,-0.0104
3.676,-0.0104
3.678,0.4049333
3.68,0.4775999
3.682,-0.007133333
3.684,0.4482666
3.686,-0.0158
3.688,-0.0005999999
3.69,0.4689333
3.692,0.4689333
3.694,-0.018
3.696,0.483
3.698,-0.0028
3.7,-0.004999999
3.702,0.4852
3.704,-0.0028
3.706,0.4743333
3.708,0.4439333
3.71,-0.001733333
3.712,0.4916666
3.714,-0.007133333
3.716,0.4016666
3.718,-0.009333332
3.72,-0.0104
3.722,0.4613333
3.724,-0.008199999
3.726,0.38
3.728,-0.007133333
3.73,0.4450666
3.732,-0.004999999
3.734,0.483
3.736,-0.004999999
3.738,0.4548
3.74,-0.0028
3.742,0.4396
3.744,-0.008199999
3.746,0.4526666
3.748,-0.0104
3.75,0.4580666
3.7520000000000002,0.4775999
3.754,-0.001733333
3.7560000000000002,-0.0028
3.758,0.4450666
3.7600000000000002,0.0026
3.762,0.4786666
3.7640000000000002,-0.0005999999
3.766,0.4906
3.7680000000000002,-0.001733333
3.77,0.457
3.7720000000000002,0.4786666
3.774,-0.003866666
3.7760000000000002,0.4125333
3.778,-0.006066666
3.7800000000000002,-0.0104
3.782,0.4450666
3.7840000000000003,-0.003866666
3.786,0.4602
3.7880000000000003,-0.01686667
3.79,0.4364
3.7920000000000003,0.4537333
3.794,-0.007133333
3.7960000000000003,-0.0104
3.798,0.4493999
3.8000000000000003,0.0004666666
3.802,0.483
3.8040000000000003,-0.003866666
3.806,0.4710666
3.8080000000000003,0.4721333
3.81,-0.004999999
3.8120000000000003,0.483
3.814,-0.004999999
3.8160000000000003,0.4385333
3.818,-0.008199999
3.8200000000000003,-0.007133333
3.822,0.483
3.8240000000000003,-0.003866666
3.826,0.4472
3.8280000000000003,-0.01146667
3.83,0.432
3.8320000000000003,-0.01146667
3.834,0.4418
3.8360000000000003,-0.006066666
3.838,0.4364
3.84,0.4558666
3.842,-0.003866666
3.844,0.3788666
3.846,-0.009333332
3.848,0.4624
3.85,-0.004999999
3.852,-0.0005999999
3.854,0.4439333
3.856,-0.0028
3.858,0.4775999
3.86,0.4504666
3.862,0.0004666666
3.864,-0.008199999
3.866,0.4710666
3.868,-0.0005999999
3.87,0.4428666
3.872,0.4797333
3.874,-0.0005999999
3.876,0.4732666
3.878,-0.01146667
3.88,-0.007133333
3.882,0.4201333
3.884,-0.009333332
3.886,0.4070666
3.888,-0.006066666
3.89,0.4743333
3.892,-0.006066666
3.894,0.4038666
3.896,-0.006066666
3.898,0.4862666
3.9,-0.01146667
3.902,0.4244666
3.904,-0.0028
3.906,0.4548
3.908,-0.0005999999
3.91,0.4450666
3.912,0.4558666
3.914,-0.006066666
3.916,-0.004999999
3.918,0.4699999
3.92,0.0004666666
3.922,0.4504666
3.924,0.4624
3.926,-0.007133333
3.928,-0.004999999
3.93,0.4428666
3.932,0.4580666
3.934,-0.004999999
3.936,0.4114
3.938,-0.01253333
3.94,0.4342
3.942,-0.01146667
3.944,0.4558666
3.946,-0.008199999
3.948,0.4678
3.95,-0.0104
3.952,-0.004999999
3.954,0.4493999
3.956,-0.006066666
3.958,0.4548
3.96,0.4775999
3.962,-0.001733333
3.964,0.0004666666
3.966,0.4764666
3.968,0.4764666
3.97,-0.004999999
3.972,0.004799999
3.974,0.4852
3.976,0.4721333
3.978,-0.004999999
3.98,-0.01146667
3.982,0.4721333
3.984,0.4364
3.986,-0.004999999
3.988,-0.009333332
3.99,0.4255333
3.992,-0.003866666
3.994,0.4092666
3.996,-0.006066666
3.998,0.001533333
4.0,0.001533333
4.002,0.4602
4.0040000000000004,0.0004666666
4.006,0.4613333
4.008,0.4385333
4.01,-0.008199999
4.0120000000000005,0.0004666666
4.014,0.4580666
4.016,0.4819333
4.018,-0.0028
4.0200000000000005,-0.003866666
4.022,0.4634666
4.024,0.4656666
4.026,0.0004666666
4.0280000000000005,0.4493999
4.03,-0.008199999
4.032,0.0004666666
4.034,0.4689333
4.0360000000000005,0.4309333
4.038,0.0026
4.04,-0.004999999
4.042,0.4764666
4.0440000000000005,0.4493999
4.046,0.001533333
4.048,-0.008199999
4.05,0.4699999
4.0520000000000005,0.4580666
4.054,-0.0028
4.056,-0.001733333
4.058,0.4721333
4.0600000000000005,0.4732666
4.062,-0.004999999
4.064,0.0004666666
4.066,0.4667333
4.0680000000000005,0.4493999
4.07,-0.001733333
4.072,-0.003866666
4.074,0.4656666
4.0760000000000005,0.4656666
4.078,-0.004999999
4.08,-0.0005999999
4.082,0.4710666
4.0840000000000005,-0.0028
4.086,0.4678
4.088,-0.0028
4.09,0.4450666
4.0920000000000005,0.4840666
4.094,-0.0005999999
4.096,-0.008199999
4.098,0.3983999
4.1,0.0004666666
4.102,0.4852
4.104,-0.004999999
4.106,0.4461333
4.108,0.4689333
4.11,-0.004999999
4.112,-0.0028
4.114,0.4580666
4.116,0.4634666
4.118,0.0004666666
4.12,-0.009333332
4.122,0.4418
4.124,0.0004666666
4.126,0.4689333
4.128,0.3810666
4.13,-0.004999999
4.132,-0.006066666
4.134,0.4678
4.136,0.4580666
4.138,-0.0028
4.14,-0.004999999
4.142,0.4786666
4.144,-0.004999999
4.146,0.4656666
4.148,-0.008199999
4.15,0.4418
4.152,0.4548
4.154,0.0004666666
4.156,-0.004999999
4.158,0.4634666
4.16,0.4743333
4.162,-0.0104
4.164,-0.004999999
4.166,0.4710666
4.168,0.4418
4.17,-0.0028
4.172,-0.0005999999
4.174,0.4580666
4.176,0.4624
4.178,-0.008199999
4.18,-0.009333332
4.182,0.4515333
4.184,0.0026
4.186,0.4678
4.188,0.4092666
4.19,-0.004999999
4.192,0.4493999
4.194,-0.0028
4.196,0.4309333
4.198,-0.006066666
4.2,-0.006066666
4.202,0.4472
4.204,0.4233333
4.206,-0.008199999
4.208,-0.006066666
4.21,0.4602
4.212,0.4624
4.214,-0.006066666
4.216,-0.0005999999
4.218,0.4689333
4.22,0.4396
4.222,-0.007133333
4.224,0.4515333
4.226,-0.007133333
4.228,0.3604666
4.23,-0.004999999
4.232,0.4591333
4.234,-0.006066666
4.236,-0.0028
4.238,0.4645333
4.24,-0.004999999
4.242,0.4288
4.244,-0.004999999
4.246,0.4374666
4.248,-0.0028
4.25,0.4201333
4.252,-0.0028
4.2540000000000004,0.4364
4.256,-0.007133333
4.258,0.4070666
4.26,0.001533333
4.2620000000000005,0.4634666
4.264,-0.008199999
4.266,0.4157999
4.268,0.0004666666
4.2700000000000005,0.4439333
4.272,0.4537333
4.274,-0.008199999
4.276,0.4667333
4.2780000000000005,0.0004666666
4.28,-0.008199999
4.282,0.4265999
4.284,0.4504666
4.2860000000000005,-0.0005999999
4.288,-0.0028
4.29,0.4548
4.292,0.4418
4.2940000000000005,-0.009333332
4.296,-0.007133333
4.298,0.4222666
4.3,-0.004999999
4.3020000000000005,0.4526666
4.304,0.4710666
4.306,-0.004999999
4.308,-0.004999999
4.3100000000000005,0.4710666
4.312,0.4548
4.314,-0.004999999
4.316,-0.01473333
4.3180000000000005,0.457
4.32,0.4667333
4.322,-0.0028
4.324,0.0004666666
4.3260000000000005,0.4819333
4.328,0.4298666
4.33,-0.008199999
4.332,-0.008199999
4.3340000000000005,0.4634666
4.336,0.0004666666
4.338,0.4493999
4.34,-0.003866666
4.3420000000000005,0.4667333
4.344,0.4721333
4.346,-0.0005999999
4.348,0.4342
4.3500000000000005,-0.009333332
4.352,0.4634666
4.354,-0.0005999999
4.356,0.3886666
4.358,-0.003866666
4.36,-0.0028
4.362,0.4764666
4.364,0.3940666
4.366,-0.004999999
4.368,0.0004666666
4.37,0.4526666
4.372,0.4439333
4.374,-0.004999999
4.376,-0.003866666
4.378,0.4732666
4.38,-0.01146667
4.382,0.4493999
4.384,-0.004999999
4.386,0.4450666
4.388,-0.008199999
4.39,0.3940666
4.392,-0.0028
4.394,0.4580666
4.396,0.4526666
4.398,-0.018
4.4,-0.006066666
4.402,0.4580666
4.404,-0.006066666
4.406,0.4168666
4.408,0.3983999
4.41,-0.0104
4.412,-0.008199999
4.414,0.4201333
4.416,-0.01146667
4.418,0.4233333
4.42,-0.001733333
4.422,0.4092666
4.424,0.4710666
4.426,-0.0005999999
4.428,0.4515333
4.43,-0.004999999
4.432,-0.009333332
4.434,0.4157999
4.436,0.4775999
4.438,0.0004666666
4.44,-0.007133333
4.442,0.4558666
4.444,0.4537333
4.446,-0.0005999999
4.448,0.4526666
4.45,-0.0104
4.452,0.3821333
4.454,-0.01146667
4.456,0.4504666
4.458,-0.0005999999
4.46,-0.008199999
4.462,0.4450666
4.464,0.4396
4.466,-0.009333332
4.468,-0.0104
4.47,0.4222666
4.472,0.4504666
4.474,-0.0104
4.476,-0.0028
4.478,0.4396
4.48,0.4461333
4.482,-0.0028
4.484,-0.007133333
4.486,0.4764666
4.488,0.432
4.49,-0.001733333
4.492,-0.006066666
4.494,0.4331333
4.496,0.4591333
4.498,-0.007133333
4.5,-0.008199999
4.502,0.4070666
4.5040000000000004,-0.008199999
4.506,0.4710666
4.508,-0.007133333
4.51,0.4201333
4.5120000000000005,0.0004666666
4.514,0.4504666
4.516,-0.008199999
4.518,0.3767333
4.5200000000000005,-0.009333332
4.522,0.4146666
4.524,-0.004999999
4.526,0.3528666
4.5280000000000005,-0.0028
4.53,0.4439333
4.532,-0.0028
4.534,0.4732666
4.5360000000000005,-0.0028
4.538,0.4526666
4.54,-0.008199999
4.542,0.4504666
4.5440000000000005,-0.0104
4.546,0.4775999
4.548,-0.006066666
4.55,0.3734666
4.5520000000000005,0.4743333
4.554,-0.006066666
4.556,0.4038666
4.558,-0.0104
4.5600000000000005,-0.007133333
4.562,0.4493999
4.564,-0.01253333
4.566,0.4146666
4.5680000000000005,-0.004999999
4.57,0.4482666
4.572,-0.006066666
4.574,0.4157999
4.5760000000000005,-0.01366667
4.578,0.4364
4.58,-0.0005999999
4.582,0.4526666
4.5840000000000005,-0.004999999
4.586,0.4461333
4.588,0.4385333
4.59,-0.004999999
4.5920000000000005,0.4493999
4.594,-0.004999999
4.596,-0.008199999
4.598,0.4331333
4.6000000000000005,-0.004999999
4.602,0.4775999
4.604,0.3767333
4.606,-0.008199999
4.6080000000000005,-0.003866666
4.61,0.4591333
4.612,0.4721333
4.614,-0.006066666
4.616,0.4667333
4.618,-0.006066666
4.62,-0.0005999999
4.622,0.4342
4.624,-0.0028
4.626,0.4786666
4.628,-0.006066666
4.63,0.432
4.632,0.4753999
4.634,0.0026
4.636,0.4689333
4.638,-0.003866666
4.64,-0.0028
4.642,0.4938666
4.644,0.0004666666
4.646,0.4873333
4.648,0.4027333
4.65,-0.006066666
4.652,-0.006066666
4.654,0.483
4.656,-0.007133333
4.658,0.4580666
4.66,-0.008199999
4.662,0.4613333
4.664,-0.004999999
4.666,0.4526666
4.668,-0.007133333
4.67,0.4331333
4.672,-0.004999999
4.674,0.4450666
4.676,0.4114
4.678,-0.009333332
4.68,-0.003866666
4.682,0.4840666
4.684,-0.006066666
4.686,0.4602
4.688,0.4743333
4.69,-0.006066666
4.692,0.4634666
4.694,-0.004999999
4.696,-0.004999999
4.698,0.4710666
4.7,-0.001733333
4.702,0.4927333
4.704,0.4819333
4.706,-0.0028
4.708,-0.0104
4.71,0.3778
4.712,0.4201333
4.714,-0.0104
4.716,0.4331333
4.718,-0.008199999
4.72,-0.001733333
4.722,0.4667333
4.724,0.4656666
4.726,-0.008199999
4.728,-0.0028
4.73,0.4580666
4.732,0.4786666
4.734,0.001533333
4.736,-0.003866666
4.738,0.4591333
4.74,0.4927333
4.742,-0.0005999999
4.744,-0.007133333
4.746,0.4938666
4.748,-0.004999999
4.75,0.496
4.752,0.001533333
4.7540000000000004,0.5035999
4.756,0.4873333
4.758,-0.006066666
4.76,-0.008199999
4.7620000000000005,0.4472
4.764,-0.0028
4.766,0.483
4.768,-0.006066666
4.7700000000000005,0.4136
4.772,0.4265999
4.774,-0.006066666
4.776,0.4364
4.7780000000000005,-0.007133333
4.78,-0.008199999
4.782,0.4927333
4.784,0.0004666666
4.7860000000000005,0.496
4.788,0.4439333
4.79,-0.0104
4.792,-0.0005999999
4.7940000000000005,0.5133333
4.796,0.5188
4.798,-0.0028
4.8,0.0004666666
4.8020000000000005,0.496
4.804,-0.0028
4.806,0.4807999
4.808,0.4613333
4.8100000000000005,-0.006066666
4.812,-0.008199999
4.814,0.4927333
4.816,0.4558666
4.8180000000000005,-0.001733333
4.82,-0.004999999
4.822,0.4906
4.824,-0.0028
4.8260000000000005,0.4613333
4.828,-0.006066666
4.83,0.4396
4.832,-0.0158
4.8340000000000005,0.5035999
4.836,-0.0028
4.838,0.4342
4.84,-0.006066666
4.8420000000000005,0.4493999
4.844,-0.0028
4.846,0.4884
4.848,0.0026
4.8500000000000005,0.5046666
4.852,-0.0005999999
4.854,0.5035999
4.856,-0.0005999999
4.8580000000000005,0.4906
4.86,-0.0005999999
4.862,0.5144666
4.864,-0.004999999
4.866,0.4916666
4.868,-0.003866666
4.87,0.4385333
4.872,0.4753999
4.874,-0.006066666
4.876,0.496
4.878,-0.003866666
4.88,-0.004999999
4.882,0.4884
4.884,-0.01146667
4.886,0.4396
4.888,-0.004999999
4.89,0.4114
4.892,-0.003866666
4.894,0.4819333
4.896,-0.0028
4.898,0.4732666
4.9,0.0026
4.902,0.4992666
4.904,0.001533333
4.906,0.5013999
4.908,0.4906
4.91,0.0004666666
4.912,0.5144666
4.914,-0.0028
4.916,-0.01366667
4.918,0.4862666
4.92,-0.004999999
4.922,0.5003333
4.924,-0.006066666
4.926,0.4211999
4.928,-0.0104
4.93,0.4840666
4.932,0.483
4.934,-0.009333332
4.936,0.4049333
4.938,-0.008199999
4.94,0.4439333
4.942,-0.0104
4.944,-0.006066666
4.946,0.5133333
4.948,-0.006066666
4.95,0.4645333
4.952,0.5013999
4.954,-0.0028
4.956,0.4840666
4.958,-0.0028
4.96,0.0004666666
4.962,0.4667333
4.964,0.001533333
4.966,0.4678
4.968,0.4873333
4.97,-0.008199999
4.972,0.5133333
4.974,-0.003866666
4.976,-0.004999999
4.978,0.4634666
4.98,-0.004999999
4.982,0.4580666
4.984,-0.008199999
4.986,0.4428666
4.988,-0.008199999
4.99,0.4689333
4.992,-0.006066666
4.994,0.4656666
4.996,-0.007133333
4.998,0.4396
5.0,-0.009333332
5.002,0.483
5.0040000000000004,0.0026
5.006,0.4949333
5.008,-0.0005999999
5.01,0.4515333
5.0120000000000005,0.004799999
5.014,0.4689333
5.016,0.4624
5.018,-0.007133333
5.0200000000000005,-0.004999999
5.022,0.5025333
5.024,-0.01146667
5.026,0.4418
5.0280000000000005,-0.006066666
5.03,0.4548
5.032,0.4906
5.034,-0.01146667
5.0360000000000005,0.4526666
5.038,-0.008199999
5.04,0.3528666
5.042,-0.007133333
5.0440000000000005,-0.0028
5.046,0.4634666
5.048,-0.0028
5.05,0.4558666
5.0520000000000005,-0.007133333
5.054,0.4656666
5.056,0.419
5.058,-0.0028
5.0600000000000005,-0.001733333
5.062,0.496
5.064,0.4667333
5.066,-0.0028
5.0680000000000005,-0.009333332
5.07,0.4895333
5.072,0.4753999
5.074,-0.003866666
5.0760000000000005,0.4775999
5.078,-0.004999999
5.08,-0.008199999
5.082,0.4624
5.0840000000000005,-0.01366667
5.086,0.4613333
5.088,-0.01473333
5.09,0.3582666
5.0920000000000005,-0.009333332
5.094,0.4461333
5.096,-0.006066666
5.098,0.4201333
5.1000000000000005,-0.007133333
5.102,0.4602
5.104,0.001533333
5.106,0.4331333
5.1080000000000005,0.4906
5.11,-0.007133333
5.112,0.4504666
5.114,-0.0028
5.1160000000000005,0.001533333
5.118,0.4678
5.12,0.0026
5.122,0.4753999
5.124,-0.0028
5.126,0.4710666
5.128,-0.009333332
5.13,0.4114
5.132,0.4689333
5.134,-0.003866666
5.136,0.4548
5.138,-0.008199999
5.14,-0.008199999
5.142,0.4689333
5.144,0.3788666
5.146,-0.004999999
5.148,0.3876
5.15,-0.0104
5.152,-0.01146667
5.154,0.4114
5.156,-0.008199999
5.158,0.4244666
5.16,-0.004999999
5.162,0.4157999
5.164,-0.006066666
5.166,0.4775999
5.168,-0.0028
5.17,0.4352666
5.172,0.4482666
5.174,0.0004666666
5.176,-0.01366667
5.178,0.4385333
5.18,-0.004999999
5.182,0.4428666
5.184,-0.006066666
5.186,0.3713333
5.188,-0.01253333
5.19,0.4364
5.192,0.4472
5.194,-0.008199999
5.196,0.38
5.198,-0.006066666
5.2,0.4179333
5.202,-0.01473333
5.204,-0.006066666
5.206,0.4482666
5.208,-0.006066666
5.21,0.4070666
5.212,-0.01146667
5.214,0.4385333
5.216,-0.0028
5.218,0.4602
5.22,0.4092666
5.222,-0.01253333
5.224,0.0004666666
5.226,0.4732666
5.228,0.4667333
5.23,-0.006066666
5.232,0.4352666
5.234,-0.007133333
5.236,0.4146666
5.238,-0.007133333
5.24,-0.006066666
5.242,0.4439333
5.244,-0.006066666
5.246,0.457
5.248,-0.01253333
5.25,0.4298666
5.252,-0.009333332
5.2540000000000004,0.4493999
5.256,0.3333333
5.258,-0.009333332
5.26,-0.0104
5.2620000000000005,0.4504666
5.264,-0.003866666
5.266,0.4244666
5.268,-0.008199999
5.2700000000000005,0.4710666
5.272,0.4689333
5.274,-0.004999999
5.276,0.4927333
5.2780000000000005,0.005866666
5.28,-0.004999999
5.282,0.4407333
5.284,0.4906
5.2860000000000005,-0.003866666
5.288,-0.01146667
5.29,0.4211999
5.292,0.4493999
5.2940000000000005,-0.006066666
5.296,0.4634666
5.298,-0.01146667
5.3,0.4450666
5.3020000000000005,-0.008199999
5.304,-0.009333332
5.306,0.4265999
5.308,-0.003866666
5.3100000000000005,0.4895333
5.312,0.4146666
5.314,-0.008199999
5.316,-0.008199999
5.3180000000000005,0.4548
5.32,-0.006066666
5.322,0.4146666
5.324,-0.006066666
5.3260000000000005,0.4873333
5.328,0.4667333
5.33,0.0004666666
5.332,-0.008199999
5.3340000000000005,0.4938666
5.336,0.5035999
5.338,-0.006066666
5.34,-0.0028
5.3420000000000005,0.4689333
5.344,-0.007133333
5.346,0.4082
5.348,-0.008199999
5.3500000000000005,0.4407333
5.352,0.4602
5.354,-0.006066666
5.356,0.3756666
5.3580000000000005,-0.008199999
5.36,0.4775999
5.362,-0.004999999
5.364,0.4179333
5.3660000000000005,-0.0028
5.368,0.4157999
5.37,-0.0158
5.372,0.001533333
5.3740000000000006,0.483
5.376,-0.006066666
5.378,0.4526666
5.38,-0.0028
5.382,0.4916666
5.384,0.001533333
5.386,0.5013999
5.388,0.001533333
5.39,0.5013999
5.392,0.4645333
5.394,-0.01146667
5.396,0.4699999
5.398,-0.008199999
5.4,-0.0104
5.402,0.483
5.404,-0.008199999
5.406,0.4222666
5.408,-0.01146667
5.41,0.4580666
5.412,-0.01253333
5.414,0.4884
5.416,-0.01146667
5.418,0.3366
5.42,0.0004666666
5.422,0.4807999
5.424,-0.0028
5.426,0.4439333
5.428,-0.0028
5.43,0.4385333
5.432,0.483
5.434,-0.0028
5.436,0.4906
5.438,-0.0005999999
5.44,-0.008199999
5.442,0.483
5.444,0.4981999
5.446,-0.001733333
5.448,-0.009333332
5.45,0.419
5.452,0.4721333
5.454,-0.006066666
5.456,0.4537333
5.458,-0.006066666
5.46,-0.01253333
5.462,0.4591333
5.464,-0.01473333
5.466,0.4938666
5.468,0.3464
5.47,-0.006066666
5.472,0.4450666
5.474,-0.006066666
5.476,-0.008199999
5.478,0.4233333
5.48,-0.0028
5.482,0.4797333
5.484,-0.0005999999
5.486,0.4526666
5.488,0.4721333
5.49,-0.006066666
5.492,-0.0005999999
5.494,0.4710666
5.496,0.4504666
5.498,-0.003866666
5.5,-0.003866666
5.502,0.4852
5.5040000000000004,-0.009333332
5.506,0.4515333
5.508,-0.009333332
5.51,0.4103333
5.5120000000000005,-0.004999999
5.514,0.432
5.516,-0.009333332
5.518,0.3561333
5.5200000000000005,-0.01146667
5.522,0.4526666
5.524,0.4114
5.526,-0.007133333
5.5280000000000005,0.4689333
5.53,-0.007133333
5.532,-0.0028
5.534,0.4775999
5.5360000000000005,-0.0028
5.538,0.4721333
5.54,-0.0104
5.542,0.4656666
5.5440000000000005,-0.006066666
5.546,0.496
5.548,-0.0028
5.55,0.4342
5.5520000000000005,0.4689333
5.554,-0.004999999
5.556,0.4472
5.558,-0.0028
5.5600000000000005,-0.007133333
5.562,0.4288
5.564,-0.0104
5.566,0.3702
5.5680000000000005,-0.0104
5.57,0.4775999
5.572,0.4482666
5.574,-0.0158
5.5760000000000005,-0.0104
5.578,0.4689333
5.58,-0.0028
5.582,0.4689333
5.5840000000000005,-0.018
5.586,0.483
5.588,-0.004999999
5.59,0.4852
5.5920000000000005,0.4548
5.594,0.003733333
5.596,-0.0028
5.598,0.4743333
5.6000000000000005,0.0004666666
5.602,0.4916666
5.604,0.4125333
5.606,-0.009333332
5.6080000000000005,-0.0104
5.61,0.4613333
5.612,0.4613333
5.614,-0.008199999
5.6160000000000005,0.3691333
5.618,-0.007133333
5.62,0.4450666
5.622,-0.004999999
5.6240000000000006,-0.004999999
5.626,0.483
5.628,0.4548
5.63,-0.0028
5.632,0.4396
5.634,-0.008199999
5.636,0.4526666
5.638,-0.0104
5.64,-0.0104
5.642,0.4775999
5.644,0.4613333
5.646,-0.0028
5.648,-0.0028
5.65,0.4602
5.652,0.4786666
5.654,-0.0005999999
5.656,0.4906
5.658,-0.001733333
5.66,0.4786666
5.662,-0.0028
5.664,-0.003866666
5.666,0.4125333
5.668,-0.0104
5.67,0.4450666
5.672,-0.009333332
5.674,0.4602
5.676,-0.01686667
5.678,0.4364
5.68,-0.007133333
5.682,0.4537333
5.684,0.3572
5.686,-0.0104
5.688,-0.0005999999
5.69,0.4732666
5.692,0.483
5.694,-0.003866666
5.696,0.0026
5.698,0.4721333
5.7,-0.004999999
5.702,0.483
5.704,0.4558666
5.706,-0.004999999
5.708,-0.008199999
5.71,0.4656666
5.712,0.483
5.714,-0.003866666
5.716,0.4472
5.718,-0.01146667
5.72,0.432
5.722,-0.01146667
5.724,0.4418
5.726,-0.006066666
5.728,-0.003866666
5.73,0.4558666
5.732,0.4374666
5.734,-0.008199999
5.736,-0.009333332
5.738,0.4624
5.74,-0.004999999
5.742,0.4439333
5.744,-0.0028
5.746,0.4775999
5.748,0.0004666666
5.75,0.4504666
5.752,-0.008199999
5.7540000000000004,0.4710666
5.756,0.4602
5.758,-0.0005999999
5.76,0.0004666666
5.7620000000000005,0.4797333
5.764,-0.0005999999
5.766,0.4732666
5.768,-0.01146667
5.7700000000000005,0.4136
5.772,0.4201333
5.774,-0.009333332
5.776,0.4070666
5.7780000000000005,-0.006066666
5.78,0.4743333
5.782,-0.006066666
5.784,0.4038666
5.7860000000000005,-0.004999999
5.788,0.4862666
5.79,-0.01146667
5.792,0.4244666
5.7940000000000005,-0.0028
5.796,-0.0028
5.798,0.4548
5.8,0.0004666666
5.8020000000000005,0.4558666
5.804,-0.006066666
5.806,0.4699999
5.808,0.4580666
5.8100000000000005,0.0004666666
5.812,0.4624
5.814,0.001533333
5.816,0.4136
5.8180000000000005,-0.007133333
5.82,-0.003866666
5.822,0.4580666
5.824,-0.004999999
5.8260000000000005,0.4309333
5.828,-0.01253333
5.83,0.4342
5.832,-0.01146667
5.8340000000000005,0.4558666
5.836,-0.006066666
5.838,0.4678
5.84,-0.0104
5.8420000000000005,0.4493999
5.844,-0.006066666
5.846,0.4396
5.848,-0.0005999999
5.8500000000000005,0.4775999
5.852,-0.001733333
5.854,0.4667333
5.856,0.4764666
5.8580000000000005,0.001533333
5.86,-0.004999999
5.862,0.4418
5.864,0.004799999
5.8660000000000005,0.4852
5.868,-0.01146667
5.87,0.4439333
5.872,0.4721333
5.8740000000000006,-0.003866666
5.876,0.4364
5.878,-0.009333332
5.88,0.4255333
5.882000000000001,-0.003866666
5.884,0.4092666
5.886,-0.006066666
5.888,0.3680666
5.89,-0.007133333
5.892,0.4819333
5.894,-0.006066666
5.896,-0.006066666
5.898,0.4526666
5.9,0.4515333
5.902,-0.003866666
5.904,-0.0028
5.906,0.4732666
5.908,0.4797333
5.91,0.0004666666
5.912,-0.0005999999
5.914,0.483
5.916,0.4613333
5.918,-0.001733333
5.92,-0.001733333
5.922,0.4873333
5.924,0.4548
5.926,-0.006066666
5.928,-0.004999999
5.93,0.4710666
5.932,0.4710666
5.934,-0.008199999
5.936,-0.007133333
5.938,0.4070666
5.94,0.4764666
5.942,-0.006066666
5.944,-0.0028
5.946,0.3550666
5.948,-0.0005999999
5.95,0.4992666
5.952,0.4450666
5.954,-0.003866666
5.956,0.4927333
5.958,-0.006066666
5.96,-0.007133333
5.962,0.4580666
5.964,0.0004666666
5.966,0.4721333
5.968,-0.003866666
5.97,0.4179333
5.972,-0.0005999999
5.974,0.4526666
5.976,0.4764666
5.978,-0.008199999
5.98,-0.009333332
5.982,0.4992666
5.984,-0.001733333
5.986,0.4439333
5.988,-0.006066666
5.99,0.4070666
5.992,0.4396
5.994,-0.0028
5.996,-0.007133333
5.998,0.003733333
6.0,0.07633333
6.002,0.4689333
6.0040000000000004,0.3810666
6.006,-0.004999999
6.008,-0.006066666
6.01,0.4678
6.0120000000000005,0.4580666
6.014,-0.0028
6.016,-0.004999999
6.018,0.4786666
6.0200000000000005,-0.004999999
6.022,0.4656666
6.024,-0.008199999
6.026,0.4418
6.0280000000000005,0.4548
6.03,0.0004666666
6.032,-0.004999999
6.034,0.4634666
6.0360000000000005,0.4743333
6.038,-0.0104
6.04,-0.004999999
6.042,0.4710666
6.0440000000000005,0.4418
6.046,-0.0028
6.048,-0.0005999999
6.05,0.4580666
6.0520000000000005,0.4624
6.054,-0.008199999
6.056,-0.009333332
6.058,0.4515333
6.0600000000000005,0.0026
6.062,0.4678
6.064,0.4092666
6.066,-0.004999999
6.0680000000000005,0.4493999
6.07,-0.0028
6.072,0.4309333
6.074,-0.006066666
6.0760000000000005,-0.006066666
6.078,0.4472
6.08,0.4233333
6.082,-0.008199999
6.0840000000000005,-0.006066666
6.086,0.4602
6.088,0.4624
6.09,-0.006066666
6.0920000000000005,-0.0005999999
6.094,0.4689333
6.096,0.4396
6.098,-0.007133333
6.1000000000000005,0.4515333
6.102,-0.007133333
6.104,0.3604666
6.106,-0.004999999
6.1080000000000005,0.4591333
6.11,-0.006066666
6.112,-0.0028
6.114,0.4645333
6.1160000000000005,-0.004999999
6.118,0.4288
6.12,-0.004999999
6.122,0.4374666
6.1240000000000006,-0.0028
6.126,0.4201333
6.128,-0.0028
6.13,0.4364
6.132000000000001,-0.007133333
6.134,0.4070666
6.136,0.001533333
6.138,0.4634666
6.140000000000001,-0.008199999
6.142,0.4157999
6.144,0.0004666666
6.146,0.4439333
6.148,0.4537333
6.15,-0.008199999
6.152,0.4667333
6.154,0.0004666666
6.156,-0.008199999
6.158,0.4265999
6.16,0.4504666
6.162,-0.0005999999
6.164,-0.0028
6.166,0.4548
6.168,0.4418
6.17,-0.009333332
6.172,-0.007133333
6.174,0.4222666
6.176,-0.004999999
6.178,0.4526666
6.18,0.4710666
6.182,-0.004999999
6.184,-0.004999999
6.186,0.4710666
6.188,0.4548
6.19,-0.004999999
6.192,-0.01473333
6.194,0.457
6.196,0.4667333
6.198,-0.0028
6.2,0.0004666666
6.202,0.4819333
6.204,0.4298666
6.206,-0.008199999
6.208,-0.008199999
6.21,0.4634666
6.212,0.0004666666
6.214,0.4493999
6.216,-0.003866666
6.218,0.4667333
6.22,0.4721333
6.222,-0.0005999999
6.224,0.4342
6.226,-0.009333332
6.228,0.4634666
6.23,-0.0005999999
6.232,0.3886666
6.234,-0.003866666
6.236,-0.0028
6.238,0.4764666
6.24,0.3940666
6.242,-0.004999999
6.244,0.0004666666
6.246,0.4526666
6.248,0.4439333
6.25,-0.004999999
6.252,-0.003866666
6.2540000000000004,0.4732666
6.256,-0.01146667
6.258,0.4493999
6.26,-0.004999999
6.2620000000000005,0.4450666
6.264,-0.008199999
6.266,0.3940666
6.268,-0.0028
6.2700000000000005,0.4580666
6.272,0.4526666
6.274,-0.018
6.276,-0.006066666
6.2780000000000005,0.4580666
6.28,-0.006066666
6.282,0.4168666
6.284,0.3983999
6.2860000000000005,-0.0104
6.288,-0.008199999
6.29,0.4201333
6.292,-0.01146667
6.2940000000000005,0.4233333
6.296,-0.001733333
6.298,0.4092666
6.3,0.4710666
6.3020000000000005,-0.0005999999
6.304,0.4515333
6.306,-0.004999999
6.308,-0.009333332
6.3100000000000005,0.4157999
6.312,0.4775999
6.314,0.0004666666
6.316,-0.007133333
6.3180000000000005,0.4558666
6.32,0.4537333
6.322,-0.0005999999
6.324,0.4526666
6.3260000000000005,-0.0104
6.328,0.3821333
6.33,-0.01146667
6.332,0.4504666
6.3340000000000005,-0.0005999999
6.336,-0.008199999
6.338,0.4450666
6.34,0.4396
6.3420000000000005,-0.009333332
6.344,-0.0104
6.346,0.4222666
6.348,0.4504666
6.3500000000000005,-0.0104
6.352,-0.0028
6.354,0.4396
6.356,0.4461333
6.3580000000000005,-0.0028
6.36,-0.007133333
6.362,0.4764666
6.364,0.432
6.3660000000000005,-0.001733333
6.368,-0.006066666
6.37,0.4331333
6.372,0.4591333
6.3740000000000006,-0.007133333
6.376,-0.008199999
6.378,0.4070666
6.38,-0.008199999
6.382000000000001,0.4710666
6.384,-0.007133333
6.386,0.4201333
6.388,0.0004666666
6.390000000000001,0.4504666
6.392,-0.008199999
6.394,0.3767333
6.396,-0.009333332
6.398000000000001,0.4146666
6.4,-0.004999999
6.402,0.3528666
6.404,-0.0028
6.406,0.4439333
6.408,-0.0028
6.41,0.4732666
6.412,-0.0028
6.414,0.4526666
6.416,-0.008199999
6.418,0.4504666
6.42,-0.0104
6.422,0.4775999
6.424,-0.006066666
6.426,0.3734666
6.428,0.4743333
6.43,-0.006066666
6.432,0.4038666
6.434,-0.0104
6.436,-0.007133333
6.438,0.4493999
6.44,-0.01253333
6.442,0.4146666
6.444,-0.004999999
6.446,0.4482666
6.448,-0.006066666
6.45,0.4157999
6.452,-0.01366667
6.454,0.4364
6.456,-0.0005999999
6.458,0.4526666
6.46,-0.004999999
6.462,0.4461333
6.464,0.4385333
6.466,-0.004999999
6.468,0.4493999
6.47,-0.004999999
6.472,-0.008199999
6.474,0.4331333
6.476,-0.004999999
6.478,0.4775999
6.48,0.3767333
6.482,-0.008199999
6.484,-0.003866666
6.486,0.4591333
6.488,0.4721333
6.49,-0.006066666
6.492,0.4667333
6.494,-0.006066666
6.496,-0.0005999999
6.498,0.4342
6.5,-0.0028
6.502,0.4786666
6.5040000000000004,-0.006066666
6.506,0.432
6.508,0.4753999
6.51,0.0026
6.5120000000000005,0.4689333
6.514,-0.003866666
6.516,-0.0028
6.518,0.4938666
6.5200000000000005,0.0004666666
6.522,0.4873333
6.524,0.4027333
6.526,-0.006066666
6.5280000000000005,-0.006066666
6.53,0.483
6.532,-0.007133333
6.534,0.4580666
6.5360000000000005,-0.008199999
6.538,0.4613333
6.54,-0.004999999
6.542,0.4526666
6.5440000000000005,-0.007133333
6.546,0.4331333
6.548,-0.004999999
6.55,0.4450666
6.5520000000000005,0.4114
6.554,-0.009333332
6.556,-0.003866666
6.558,0.4840666
6.5600000000000005,-0.006066666
6.562,0.4602
6.564,0.4743333
6.566,-0.006066666
6.5680000000000005,0.4634666
6.57,-0.004999999
6.572,-0.004999999
6.574,0.4710666
6.5760000000000005,-0.001733333
6.578,0.4927333
6.58,0.4819333
6.582,-0.0028
6.5840000000000005,-0.0104
6.586,0.3778
6.588,0.4201333
6.59,-0.0104
6.5920000000000005,0.4331333
6.594,-0.008199999
6.596,-0.001733333
6.598,0.4667333
6.6000000000000005,0.4656666
6.602,-0.008199999
6.604,-0.0028
6.606,0.4580666
6.6080000000000005,0.4786666
6.61,0.001533333
6.612,-0.003866666
6.614,0.4591333
6.6160000000000005,0.4927333
6.618,-0.0005999999
6.62,-0.007133333
6.622,0.4938666
6.6240000000000006,-0.004999999
6.626,0.496
6.628,0.001533333
6.63,0.5035999
6.632000000000001,0.4873333
6.634,-0.006066666
6.636,-0.008199999
6.638,0.4472
6.640000000000001,-0.0028
6.642,0.483
6.644,-0.006066666
6.646,0.4136
6.648000000000001,0.4265999
6.65,-0.006066666
6.652,0.4364
6.654,-0.007133333
6.656000000000001,-0.008199999
6.658,0.4927333
6.66,0.0004666666
6.662,0.496
6.664,0.4439333
6.666,-0.0104
6.668,-0.0005999999
6.67,0.5133333
6.672,0.5188
6.674,-0.0028
6.676,0.0004666666
6.678,0.496
6.68,-0.0028
6.682,0.4807999
6.684,0.4613333
6.686,-0.006066666
6.688,-0.008199999
6.69,0.4927333
6.692,0.4558666
6.694,-0.001733333
6.696,-0.004999999
6.698,0.4906
6.7,-0.0028
6.702,0.4613333
6.704,-0.006066666
6.706,0.4396
6.708,-0.0158
6.71,0.5035999
6.712,-0.0028
6.714,0.4342
6.716,-0.006066666
6.718,0.4493999
6.72,-0.0028
6.722,0.4884
6.724,0.0026
6.726,0.5046666
6.728,-0.0005999999
6.73,0.5035999
6.732,-0.0005999999
6.734,0.4906
6.736,-0.0005999999
6.738,0.5144666
6.74,-0.004999999
6.742,0.4916666
6.744,-0.003866666
6.746,0.4385333
6.748,0.4753999
6.75,-0.006066666
6.752,0.496
6.7540000000000004,-0.003866666
6.756,-0.004999999
6.758,0.4884
6.76,-0.01146667
6.7620000000000005,0.4396
6.764,-0.004999999
6.766,0.4114
6.768,-0.003866666
6.7700000000000005,0.4819333
6.772,-0.0028
6.774,0.4732666
6.776,0.0026
6.7780000000000005,0.4992666
6.78,0.001533333
6.782,0.5013999
6.784,0.4906
6.7860000000000005,0.0004666666
6.788,0.5144666
6.79,-0.0028
6.792,-0.01366667
6.7940000000000005,0.4862666
6.796,-0.004999999
6.798,0.5003333
6.8,-0.006066666
6.8020000000000005,0.4211999
6.804,-0.0104
6.806,0.4840666
6.808,0.483
6.8100000000000005,-0.009333332
6.812,0.4049333
6.814,-0.008199999
6.816,0.4439333
6.8180000000000005,-0.0104
6.82,-0.006066666
6.822,0.5133333
6.824,-0.006066666
6.8260000000000005,0.4645333
6.828,0.5013999
6.83,-0.0028
6.832,0.4840666
6.8340000000000005,-0.0028
6.836,0.0004666666
6.838,0.4667333
6.84,0.001533333
6.8420000000000005,0.4678
6.844,0.4873333
6.846,-0.008199999
6.848,0.5133333
6.8500000000000005,-0.003866666
6.852,-0.004999999
6.854,0.4634666
6.856,-0.004999999
6.8580000000000005,0.4580666
6.86,-0.008199999
6.862,0.4428666
6.864,-0.008199999
6.8660000000000005,0.4689333
6.868,-0.006066666
6.87,0.4656666
6.872,-0.007133333
6.8740000000000006,0.4396
6.876,-0.009333332
6.878,0.483
6.88,0.0026
6.882000000000001,0.4949333
6.884,-0.0005999999
6.886,0.4515333
6.888,0.004799999
6.890000000000001,0.4689333
6.892,0.4624
6.894,-0.007133333
6.896,-0.004999999
6.898000000000001,0.5025333
6.9,-0.01146667
6.902,0.4418
6.904,-0.006066666
6.906000000000001,0.4548
6.908,0.4906
6.91,-0.01146667
6.912,0.4526666
6.914,-0.008199999
6.916,0.3528666
6.918,-0.007133333
6.92,-0.0028
6.922,0.4634666
6.924,-0.0028
6.926,0.4558666
6.928,-0.007133333
6.93,0.4656666
6.932,0.419
6.934,-0.0028
6.936,-0.001733333
6.938,0.496
6.94,0.4667333
6.942,-0.0028
6.944,-0.009333332
6.946,0.4895333
6.948,0.4753999
6.95,-0.003866666
6.952,0.4775999
6.954,-0.004999999
6.956,-0.008199999
6.958,0.4624
6.96,-0.01366667
6.962,0.4613333
6.964,-0.01473333
6.966,0.3582666
6.968,-0.009333332
6.97,0.4461333
6.972,-0.006066666
6.974,0.4201333
6.976,-0.007133333
6.978,0.4602
6.98,0.001533333
6.982,0.4331333
6.984,0.4906
6.986,-0.007133333
6.988,0.4504666
6.99,-0.0028
6.992,0.001533333
6.994,0.4678
6.996,0.0026
6.998,0.4753999
7.0,-0.0028
7.002,0.4710666
7.0040000000000004,-0.009333332
7.006,0.4114
7.008,0.4689333
7.01,-0.003866666
7.0120000000000005,0.4548
7.014,-0.008199999
7.016,-0.008199999
7.018,0.4689333
7.0200000000000005,0.3788666
7.022,-0.004999999
7.024,0.3876
7.026,-0.0104
7.0280000000000005,-0.01146667
7.03,0.4114
7.032,-0.008199999
7.034,0.4244666
7.0360000000000005,-0.004999999
7.038,0.4157999
7.04,-0.006066666
7.042,0.4775999
7.0440000000000005,-0.0028
7.046,0.4352666
7.048,0.4482666
7.05,0.0004666666
7.0520000000000005,-0.01366667
7.054,0.4385333
7.056,-0.004999999
7.058,0.4428666
7.0600000000000005,-0.006066666
7.062,0.3713333
7.064,-0.01253333
7.066,0.4364
7.0680000000000005,0.4472
7.07,-0.008199999
7.072,0.38
7.074,-0.006066666
7.0760000000000005,0.4179333
7.078,-0.01473333
7.08,-0.006066666
7.082,0.4482666
7.0840000000000005,-0.006066666
7.086,0.4070666
7.088,-0.01146667
7.09,0.4385333
7.0920000000000005,-0.0028
7.094,0.4602
7.096,0.4092666
7.098,-0.01253333
7.1000000000000005,0.0004666666
7.102,0.4732666
7.104,0.4667333
7.106,-0.006066666
7.1080000000000005,0.4352666
7.11,-0.007133333
7.112,0.4146666
7.114,-0.007133333
7.1160000000000005,-0.006066666
7.118,0.4439333
7.12,-0.006066666
7.122,0.457
7.1240000000000006,-0.01253333
7.126,0.4298666
7.128,-0.009333332
7.13,0.4493999
7.132000000000001,0.3333333
7.134,-0.009333332
7.136,-0.0104
7.138,0.4504666
7.140000000000001,-0.003866666
7.142,0.4244666
7.144,-0.008199999
7.146,0.4710666
7.148000000000001,0.4689333
7.15,-0.004999999
7.152,0.4927333
7.154,0.005866666
7.156000000000001,-0.004999999
7.158,0.4407333
7.16,0.4906
7.162,-0.003866666
7.164000000000001,-0.01146667
7.166,0.4211999
7.168,0.4493999
7.17,-0.006066666
7.172,0.4634666
7.174,-0.01146667
7.176,0.4450666
7.178,-0.008199999
7.18,-0.009333332
7.182,0.4265999
7.184,-0.003866666
7.186,0.4895333
7.188,0.4146666
7.19,-0.008199999
7.192,-0.008199999
7.194,0.4548
7.196,-0.006066666
7.198,0.4146666
7.2,-0.006066666
7.202,0.4873333
7.204,0.4667333
7.206,0.0004666666
7.208,-0.008199999
7.21,0.4938666
7.212,0.5035999
7.214,-0.006066666
7.216,-0.0028
7.218,0.4689333
7.22,-0.007133333
7.222,0.4082
7.224,-0.008199999
7.226,0.4407333
7.228,0.4602
7.23,-0.006066666
7.232,0.3756666
7.234,-0.008199999
7.236,0.4775999
7.238,-0.004999999
7.24,0.4179333
7.242,-0.0028
7.244,0.4157999
7.246,-0.0158
7.248,0.001533333
7.25,0.483
7.252,-0.006066666
7.2540000000000004,0.4526666
7.256,-0.0028
7.258,0.4916666
7.26,0.001533333
7.2620000000000005,0.5013999
7.264,0.001533333
7.266,0.5013999
7.268,0.4645333
7.2700000000000005,-0.01146667
7.272,0.4699999
7.274,-0.008199999
7.276,-0.0104
7.2780000000000005,0.483
7.28,-0.008199999
7.282,0.4222666
7.284,-0.01146667
7.2860000000000005,0.4580666
7.288,-0.01253333
7.29,0.4884
7.292,-0.01146667
7.2940000000000005,0.3366
7.296,0.0004666666
7.298,0.4807999
7.3,-0.0028
7.3020000000000005,0.4439333
7.304,-0.0028
7.306,0.4385333
7.308,0.483
7.3100000000000005,-0.0028
7.312,0.4906
7.314,-0.0005999999
7.316,-0.008199999
7.3180000000000005,0.483
7.32,0.4981999
7.322,-0.001733333
7.324,-0.009333332
7.3260000000000005,0.419
7.328,0.4721333
7.33,-0.006066666
7.332,0.4537333
7.3340000000000005,-0.006066666
7.336,-0.01253333
7.338,0.4591333
7.34,-0.01473333
7.3420000000000005,0.4938666
7.344,0.3464
7.346,-0.006066666
7.348,0.4450666
7.3500000000000005,-0.006066666
7.352,-0.008199999
7.354,0.4233333
7.356,-0.0028
7.3580000000000005,0.4797333
7.36,-0.0005999999
7.362,0.4526666
7.364,0.4721333
7.3660000000000005,-0.006066666
7.368,-0.0005999999
7.37,0.4710666
7.372,0.4504666
7.3740000000000006,-0.003866666
7.376,-0.003866666
7.378,0.4852
7.38,-0.009333332
7.382000000000001,0.4515333
7.384,-0.009333332
7.386,0.4103333
7.388,-0.004999999
7.390000000000001,0.432
7.392,-0.009333332
7.394,0.3561333
7.396,-0.01146667
7.398000000000001,0.4526666
7.4,0.4114
7.402,-0.007133333
7.404,0.4689333
7.406000000000001,-0.007133333
7.408,-0.0028
7.41,0.4775999
7.412,-0.0028
7.414000000000001,0.4721333
7.416,-0.0104
7.418,0.4656666
7.42,-0.006066666
7.422000000000001,0.496
7.424,-0.0028
7.426,0.4342
7.428,0.4689333
7.43,-0.004999999
7.432,0.4472
7.434,-0.0028
7.436,-0.007133333
7.438,0.4288
7.44,-0.0104
7.442,0.3702
7.444,-0.0104
7.446,0.4775999
7.448,0.4482666
7.45,-0.0158
7.452,-0.0104
7.454,0.4689333
7.456,-0.0028
7.458,0.4689333
7.46,-0.018
7.462,0.483
7.464,-0.004999999
7.466,0.4852
7.468,0.4548
7.47,0.003733333
7.472,-0.0028
7.474,0.4743333
7.476,0.0004666666
7.478,0.4916666
7.48,0.4125333
7.482,-0.009333332
7.484,-0.0104
7.486,0.4613333
7.488,0.4613333
7.49,-0.008199999
7.492,0.3691333
7.494,-0.007133333
7.496,0.4450666
7.498,-0.004999999
7.5,-0.004999999
7.502,0.483
7.5040000000000004,0.4548
7.506,-0.0028
7.508,0.4396
7.51,-0.008199999
7.5120000000000005,0.4526666
7.514,-0.0104
7.516,-0.0104
7.518,0.4775999
7.5200000000000005,0.4613333
7.522,-0.0028
7.524,-0.0028
7.526,0.4602
7.5280000000000005,0.4786666
7.53,-0.0005999999
7.532,0.4906
7.534,-0.001733333
7.5360000000000005,0.4786666
7.538,-0.0028
7.54,-0.003866666
7.542,0.4125333
7.5440000000000005,-0.0104
7.546,0.4450666
7.548,-0.009333332
7.55,0.4602
7.5520000000000005,-0.01686667
7.554,0.4364
7.556,-0.007133333
7.558,0.4537333
7.5600000000000005,0.3572
7.562,-0.0104
7.564,-0.0005999999
7.566,0.4732666
7.5680000000000005,0.483
7.57,-0.003866666
7.572,0.0026
7.574,0.4721333
7.5760000000000005,-0.004999999
7.578,0.483
7.58,0.4558666
7.582,-0.004999999
7.5840000000000005,-0.008199999
7.586,0.4656666
7.588,0.483
7.59,-0.003866666
7.5920000000000005,0.4472
7.594,-0.01146667
7.596,0.432
7.598,-0.01146667
7.6000000000000005,0.4418
7.602,-0.006066666
7.604,-0.003866666
7.606,0.4558666
7.6080000000000005,0.4374666
7.61,-0.008199999
7.612,-0.009333332
7.614,0.4624
7.6160000000000005,-0.004999999
7.618,0.4439333
7.62,-0.0028
7.622,0.4775999
7.6240000000000006,0.0004666666
7.626,0.4504666
7.628,-0.008199999
7.63,0.4710666
7.632000000000001,0.4602
7.634,-0.0005999999
7.636,0.0004666666
7.638,0.4797333
7.640000000000001,-0.0005999999
7.642,0.4732666
7.644,-0.01146667
7.646,0.4136
7.648000000000001,0.4201333
7.65,-0.009333332
7.652,0.4070666
7.654,-0.006066666
7.656000000000001,0.4743333
7.658,-0.006066666
7.66,0.4038666
7.662,-0.004999999
7.664000000000001,0.4862666
7.666,-0.01146667
7.668,0.4244666
7.67,-0.0028
7.672000000000001,-0.0028
7.674,0.4548
7.676,0.0004666666
7.678,0.4558666
7.68,-0.006066666
7.682,0.4699999
7.684,0.4580666
7.686,0.0004666666
7.688,0.4624
7.69,0.001533333
7.692,0.4136
7.694,-0.007133333
7.696,-0.003866666
7.698,0.4580666
7.7,-0.004999999
7.702,0.4309333
7.704,-0.01253333
7.706,0.4342
7.708,-0.01146667
7.71,0.4558666
7.712,-0.006066666
7.714,0.4678
7.716,-0.0104
7.718,0.4493999
7.72,-0.006066666
7.722,0.4396
7.724,-0.0005999999
7.726,0.4775999
7.728,-0.001733333
7.73,0.4667333
7.732,0.4764666
7.734,0.001533333
7.736,-0.004999999
7.738,0.4418
7.74,0.004799999
7.742,0.4852
7.744,-0.01146667
7.746,0.4439333
7.748,0.4721333
7.75,-0.003866666
7.752,0.4364
7.7540000000000004,-0.009333332
7.756,0.4255333
7.758,-0.003866666
7.76,0.4092666
7.7620000000000005,-0.006066666
7.764,0.3680666
7.766,-0.007133333
7.768,0.4819333
7.7700000000000005,-0.006066666
7.772,-0.006066666
7.774,0.4526666
7.776,0.4515333
7.7780000000000005,-0.003866666
7.78,-0.0028
7.782,0.4732666
7.784,0.4797333
7.7860000000000005,0.0004666666
7.788,-0.0005999999
7.79,0.483
7.792,0.4613333
7.7940000000000005,-0.001733333
7.796,-0.001733333
7.798,0.4873333
7.8,0.4548
7.8020000000000005,-0.006066666
7.804,-0.004999999
7.806,0.4710666
7.808,0.4710666
7.8100000000000005,-0.008199999
7.812,-0.007133333
7.814,0.4070666
7.816,0.4764666
7.8180000000000005,-0.006066666
7.82,-0.0028
7.822,0.3550666
7.824,-0.0005999999
7.8260000000000005,0.4992666
7.828,0.4450666
7.83,-0.003866666
7.832,0.4927333
7.8340000000000005,-0.006066666
7.836,-0.007133333
7.838,0.4580666
7.84,0.0004666666
7.8420000000000005,0.4721333
7.844,-0.003866666
7.846,0.4179333
7.848,-0.0005999999
7.8500000000000005,0.4526666
7.852,0.4764666
7.854,-0.008199999
7.856,-0.009333332
7.8580000000000005,0.4992666
7.86,-0.001733333
7.862,0.4439333
7.864,-0.006066666
7.8660000000000005,0.4070666
7.868,0.4396
7.87,-0.0028
7.872,-0.007133333
7.8740000000000006,0.4114
7.876,0.4667333
7.878,-0.006066666
7.88,-0.008199999
7.882000000000001,0.4082
7.884,0.4840666
7.886,-0.006066666
7.888,0.3658666
7.890000000000001,-0.0104
7.892,0.4667333
7.894,-0.0028
7.896,-0.004999999
7.898000000000001,0.4558666
7.9,0.5025333
7.902,-0.004999999
7.904,-0.003866666
7.906000000000001,0.4309333
7.908,0.0004666666
7.91,0.5003333
7.912,-0.0028
7.914000000000001,0.3745333
7.916,-0.006066666
7.918,0.5046666
7.92,0.3951333
7.922000000000001,-0.006066666
7.924,0.0004666666
7.926,0.4981999
7.928,0.4450666
7.930000000000001,-0.008199999
7.932,0.0004666666
7.934,0.4840666
7.936,0.4472
7.938,-0.0028
7.94,-0.004999999
7.942,0.4233333
7.944,0.3788666
7.946,-0.0028
7.948,-0.006066666
7.95,0.4385333
7.952,0.4548
7.954,0.0004666666
7.956,-0.01146667
7.958,0.4602
7.96,0.4428666
7.962,-0.004999999
7.964,-0.0028
7.966,0.3962666
7.968,0.483
7.97,0.0004666666
7.972,0.4157999
7.974,-0.0028
7.976,-0.0028
7.978,0.4624
7.98,0.406
7.982,-0.001733333
7.984,-0.0005999999
7.986,0.4450666
7.988,-0.004999999
7.99,0.406
7.992,0.4006
7.994,-0.0028
7.996,-0.0104
7.998,0.046
8.0,0.2834666
8.002,0.4645333
8.004,-0.004999999
8.006,0.4288
8.008000000000001,-0.004999999
8.01,0.4374666
8.012,-0.0028
8.014,0.4201333
8.016,-0.0028
8.018,0.4364
8.02,-0.007133333
8.022,0.4070666
8.024000000000001,0.001533333
8.026,0.4634666
8.028,-0.008199999
8.03,0.4157999
8.032,0.0004666666
8.034,0.4439333
8.036,0.4537333
8.038,-0.008199999
8.040000000000001,0.4667333
8.042,0.0004666666
8.044,-0.008199999
8.046,0.4265999
8.048,0.4504666
8.05,-0.0005999999
8.052,-0.0028
8.054,0.4548
8.056000000000001,0.4418
8.058,-0.009333332
8.06,-0.007133333
8.062,0.4222666
8.064,-0.004999999
8.066,0.4526666
8.068,0.4710666
8.07,-0.004999999
8.072000000000001,-0.004999999
8.074,0.4710666
8.076,0.4548
8.078,-0.004999999
8.08,-0.01473333
8.082,0.457
8.084,0.4667333
8.086,-0.0028
8.088000000000001,0.0004666666
8.09,0.4819333
8.092,0.4298666
8.094,-0.008199999
8.096,-0.008199999
8.098,0.4634666
8.1,0.0004666666
8.102,0.4493999
8.104000000000001,-0.003866666
8.106,0.4667333
8.108,0.4721333
8.11,-0.0005999999
8.112,0.4342
8.114,-0.009333332
8.116,0.4634666
8.118,-0.0005999999
8.120000000000001,0.3886666
8.122,-0.003866666
8.124,-0.0028
8.126,0.4764666
8.128,0.3940666
8.13,-0.004999999
8.132,0.0004666666
8.134,0.4526666
8.136000000000001,0.4439333
8.138,-0.004999999
8.14,-0.003866666
8.142,0.4732666
8.144,-0.01146667
8.146,0.4493999
8.148,-0.004999999
8.15,0.4450666
8.152000000000001,-0.008199999
8.154,0.3940666
8.156,-0.0028
8.158,0.4580666
8.16,0.4526666
8.162,-0.018
8.164,-0.006066666
8.166,0.4580666
8.168000000000001,-0.006066666
8.17,0.4168666
8.172,0.3983999
8.174,-0.0104
8.176,-0.008199999
8.178,0.4201333
8.18,-0.01146667
8.182,0.4233333
8.184000000000001,-0.001733333
8.186,0.4092666
8.188,0.4710666
8.19,-0.0005999999
8.192,0.4515333
8.194,-0.004999999
8.196,-0.009333332
8.198,0.4157999
8.2,0.4775999
8.202,0.0004666666
8.204,-0.007133333
8.206,0.4558666
8.208,0.4537333
8.21,-0.0005999999
8.212,0.4526666
8.214,-0.0104
8.216,0.3821333
8.218,-0.01146667
8.22,0.4504666
8.222,-0.0005999999
8.224,-0.008199999
8.226,0.4450666
8.228,0.4396
8.23,-0.009333332
8.232,-0.0104
8.234,0.4222666
8.236,0.4504666
8.238,-0.0104
8.24,-0.0028
8.242,0.4396
8.244,0.4461333
8.246,-0.0028
8.248,-0.007133333
8.25,0.4764666
8.252,0.432
8.254,-0.001733333
8.256,-0.006066666
8.258000000000001,0.4331333
8.26,0.4591333
8.262,-0.007133333
8.264,-0.008199999
8.266,0.4070666
8.268,-0.008199999
8.27,0.4710666
8.272,-0.007133333
8.274000000000001,0.4201333
8.276,0.0004666666
8.278,0.4504666
8.28,-0.008199999
8.282,0.3767333
8.284,-0.009333332
8.286,0.4146666
8.288,-0.004999999
8.290000000000001,0.3528666
8.292,-0.0028
8.294,0.4439333
8.296,-0.0028
8.298,0.4732666
8.3,-0.0028
8.302,0.4526666
8.304,-0.008199999
8.306000000000001,0.4504666
8.308,-0.0104
8.31,0.4775999
8.312,-0.006066666
8.314,0.3734666
8.316,0.4743333
8.318,-0.006066666
8.32,0.4038666
8.322000000000001,-0.0104
8.324,-0.007133333
8.326,0.4493999
8.328,-0.01253333
8.33,0.4146666
8.332,-0.004999999
8.334,0.4482666
8.336,-0.006066666
8.338000000000001,0.4157999
8.34,-0.01366667
8.342,0.4364
8.344,-0.0005999999
8.346,0.4526666
8.348,-0.004999999
8.35,0.4461333
8.352,0.4385333
8.354000000000001,-0.004999999
8.356,0.4493999
8.358,-0.004999999
8.36,-0.008199999
8.362,0.4331333
8.364,-0.004999999
8.366,0.4775999
8.368,0.3767333
8.370000000000001,-0.008199999
8.372,-0.003866666
8.374,0.4591333
8.376,0.4721333
8.378,-0.006066666
8.38,0.4667333
8.382,-0.006066666
8.384,-0.0005999999
8.386000000000001,0.4342
8.388,-0.0028
8.39,0.4786666
8.392,-0.006066666
8.394,0.432
8.396,0.4753999
8.398,0.0026
8.4,0.4689333
8.402000000000001,-0.003866666
8.404,-0.0028
8.406,0.4938666
8.408,0.0004666666
8.41,0.4873333
8.412,0.4027333
8.414,-0.006066666
8.416,-0.006066666
8.418000000000001,0.483
8.42,-0.007133333
8.422,0.4580666
8.424,-0.008199999
8.426,0.4613333
8.428,-0.004999999
8.43,0.4526666
8.432,-0.007133333
8.434000000000001,0.4331333
8.436,-0.004999999
8.438,0.4450666
8.44,0.4114
8.442,-0.009333332
8.444,-0.003866666
8.446,0.4840666
8.448,-0.006066666
8.45,0.4602
8.452,0.4743333
8.454,-0.006066666
8.456,0.4634666
8.458,-0.004999999
8.46,-0.004999999
8.462,0.4710666
8.464,-0.001733333
8.466,0.4927333
8.468,0.4819333
8.47,-0.0028
8.472,-0.0104
8.474,0.3778
8.476,0.4201333
8.478,-0.0104
8.48,0.4331333
8.482,-0.008199999
8.484,-0.001733333
8.486,0.4667333
8.488,0.4656666
8.49,-0.008199999
8.492,-0.0028
8.494,0.4580666
8.496,0.4786666
8.498,0.001533333
8.5,-0.003866666
8.502,0.4591333
8.504,0.4927333
8.506,-0.0005999999
8.508000000000001,-0.007133333
8.51,0.4938666
8.512,-0.004999999
8.514,0.496
8.516,0.001533333
8.518,0.5035999
8.52,0.4873333
8.522,-0.006066666
8.524000000000001,-0.008199999
8.526,0.4472
8.528,-0.0028
8.53,0.483
8.532,-0.006066666
8.534,0.4136
8.536,0.4265999
8.538,-0.006066666
8.540000000000001,0.4364
8.542,-0.007133333
8.544,-0.008199999
8.546,0.4927333
8.548,0.0004666666
8.55,0.496
8.552,0.4439333
8.554,-0.0104
8.556000000000001,-0.0005999999
8.558,0.5133333
8.56,0.5188
8.562,-0.0028
8.564,0.0004666666
8.566,0.496
8.568,-0.0028
8.57,0.4807999
8.572000000000001,0.4613333
8.574,-0.006066666
8.576,-0.008199999
8.578,0.4927333
8.58,0.4558666
8.582,-0.001733333
8.584,-0.004999999
8.586,0.4906
8.588000000000001,-0.0028
8.59,0.4613333
8.592,-0.006066666
8.594,0.4396
8.596,-0.0158
8.598,0.5035999
8.6,-0.0028
8.602,0.4342
8.604000000000001,-0.006066666
8.606,0.4493999
8.608,-0.0028
8.61,0.4884
8.612,0.0026
8.614,0.5046666
8.616,-0.0005999999
8.618,0.5035999
8.620000000000001,-0.0005999999
8.622,0.4906
8.624,-0.0005999999
8.626,0.5144666
8.628,-0.004999999
8.63,0.4916666
8.632,-0.003866666
8.634,0.4385333
8.636000000000001,0.4753999
8.638,-0.006066666
8.64,0.496
8.642,-0.003866666
8.644,-0.004999999
8.646,0.4884
8.648,-0.01146667
8.65,0.4396
8.652000000000001,-0.004999999
8.654,0.4114
8.656,-0.003866666
8.658,0.4819333
8.66,-0.0028
8.662,0.4732666
8.664,0.0026
8.666,0.4992666
8.668000000000001,0.001533333
8.67,0.5013999
8.672,0.4906
8.674,0.0004666666
8.676,0.5144666
8.678,-0.0028
8.68,-0.01366667
8.682,0.4862666
8.684000000000001,-0.004999999
8.686,0.5003333
8.688,-0.006066666
8.69,0.4211999
8.692,-0.0104
8.694,0.4840666
8.696,0.483
8.698,-0.009333332
8.700000000000001,0.4049333
8.702,-0.008199999
8.704,0.4439333
8.706,-0.0104
8.708,-0.006066666
8.71,0.5133333
8.712,-0.006066666
8.714,0.4645333
8.716,0.5013999
8.718,-0.0028
8.72,0.4840666
8.722,-0.0028
8.724,0.0004666666
8.726,0.4667333
8.728,0.001533333
8.73,0.4678
8.732,0.4873333
8.734,-0.008199999
8.736,0.5133333
8.738,-0.003866666
8.74,-0.004999999
8.742,0.4634666
8.744,-0.004999999
8.746,0.4580666
8.748,-0.008199999
8.75,0.4428666
8.752,-0.008199999
8.754,0.4689333
8.756,-0.006066666
8.758000000000001,0.4656666
8.76,-0.007133333
8.762,0.4396
8.764,-0.009333332
8.766,0.483
8.768,0.0026
8.77,0.4949333
8.772,-0.0005999999
8.774000000000001,0.4515333
8.776,0.004799999
8.778,0.4689333
8.78,0.4624
8.782,-0.007133333
8.784,-0.004999999
8.786,0.5025333
8.788,-0.01146667
8.790000000000001,0.4418
8.792,-0.006066666
8.794,0.4548
8.796,0.4906
8.798,-0.01146667
8.8,0.4526666
8.802,-0.008199999
8.804,0.3528666
8.806000000000001,-0.007133333
8.808,-0.0028
8.81,0.4634666
8.812,-0.0028
8.814,0.4558666
8.816,-0.007133333
8.818,0.4656666
8.82,0.419
8.822000000000001,-0.0028
8.824,-0.001733333
8.826,0.496
8.828,0.4667333
8.83,-0.0028
8.832,-0.009333332
8.834,0.4895333
8.836,0.4753999
8.838000000000001,-0.003866666
8.84,0.4775999
8.842,-0.004999999
8.844,-0.008199999
8.846,0.4624
8.848,-0.01366667
8.85,0.4613333
8.852,-0.01473333
8.854000000000001,0.3582666
8.856,-0.009333332
8.858,0.4461333
8.86,-0.006066666
8.862,0.4201333
8.864,-0.007133333
8.866,0.4602
8.868,0.001533333
8.870000000000001,0.4331333
8.872,0.4906
8.874,-0.007133333
8.876,0.4504666
8.878,-0.0028
8.88,0.001533333
8.882,0.4678
8.884,0.0026
8.886000000000001,0.4753999
8.888,-0.0028
8.89,0.4710666
8.892,-0.009333332
8.894,0.4114
8.896,0.4689333
8.898,-0.003866666
8.9,0.4548
8.902000000000001,-0.008199999
8.904,-0.008199999
8.906,0.4689333
8.908,0.3788666
8.91,-0.004999999
8.912,0.3876
8.914,-0.0104
8.916,-0.01146667
8.918000000000001,0.4114
8.92,-0.008199999
8.922,0.4244666
8.924,-0.004999999
8.926,0.4157999
8.928,-0.006066666
8.93,0.4775999
8.932,-0.0028
8.934000000000001,0.4352666
8.936,0.4482666
8.938,0.0004666666
8.94,-0.01366667
8.942,0.4385333
8.944,-0.004999999
8.946,0.4428666
8.948,-0.006066666
8.950000000000001,0.3713333
8.952,-0.01253333
8.954,0.4364
8.956,0.4472
8.958,-0.008199999
8.96,0.38
8.962,-0.006066666
8.964,0.4179333
8.966,-0.01473333
8.968,-0.006066666
8.97,0.4482666
8.972,-0.006066666
8.974,0.4070666
8.976,-0.01146667
8.978,0.4385333
8.98,-0.0028
8.982,0.4602
8.984,0.4092666
8.986,-0.01253333
8.988,0.0004666666
8.99,0.4732666
8.992,0.4667333
8.994,-0.006066666
8.996,0.4352666
8.998,-0.007133333
9.0,0.4146666
9.002,-0.007133333
9.004,-0.006066666
9.006,0.4439333
9.008000000000001,-0.006066666
9.01,0.457
9.012,-0.01253333
9.014,0.4298666
9.016,-0.009333332
9.018,0.4493999
9.02,0.3333333
9.022,-0.009333332
9.024000000000001,-0.0104
9.026,0.4504666
9.028,-0.003866666
9.03,0.4244666
9.032,-0.008199999
9.034,0.4710666
9.036,0.4689333
9.038,-0.004999999
9.040000000000001,0.4927333
9.042,0.005866666
9.044,-0.004999999
9.046,0.4407333
9.048,0.4906
9.05,-0.003866666
9.052,-0.01146667
9.054,0.4211999
9.056000000000001,0.4493999
9.058,-0.006066666
9.06,0.4634666
9.062,-0.01146667
9.064,0.4450666
9.066,-0.008199999
9.068,-0.009333332
9.07,0.4265999
9.072000000000001,-0.003866666
9.074,0.4895333
9.076,0.4146666
9.078,-0.008199999
9.08,-0.008199999
9.082,0.4548
9.084,-0.006066666
9.086,0.4146666
9.088000000000001,-0.006066666
9.09,0.4873333
9.092,0.4667333
9.094,0.0004666666
9.096,-0.008199999
9.098,0.4938666
9.1,0.5035999
9.102,-0.006066666
9.104000000000001,-0.0028
9.106,0.4689333
9.108,-0.007133333
9.11,0.4082
9.112,-0.008199999
9.114,0.4407333
9.116,0.4602
9.118,-0.006066666
9.120000000000001,0.3756666
9.122,-0.008199999
9.124,0.4775999
9.126,-0.004999999
9.128,0.4179333
9.13,-0.0028
9.132,0.4157999
9.134,-0.0158
9.136000000000001,0.001533333
9.138,0.483
9.14,-0.006066666
9.142,0.4526666
9.144,-0.0028
9.146,0.4916666
9.148,0.001533333
9.15,0.5013999
9.152000000000001,0.001533333
9.154,0.5013999
9.156,0.4645333
9.158,-0.01146667
9.16,0.4699999
9.162,-0.008199999
9.164,-0.0104
9.166,0.483
9.168000000000001,-0.008199999
9.17,0.4222666
9.172,-0.01146667
9.174,0.4580666
9.176,-0.01253333
9.178,0.4884
9.18,-0.01146667
9.182,0.3366
9.184000000000001,0.0004666666
9.186,0.4807999
9.188,-0.0028
9.19,0.4439333
9.192,-0.0028
9.194,0.4385333
9.196,0.483
9.198,-0.0028
9.200000000000001,0.4906
9.202,-0.0005999999
9.204,-0.008199999
9.206,0.483
9.208,0.4981999
9.21,-0.001733333
9.212,-0.009333332
9.214,0.419
9.216000000000001,0.4721333
9.218,-0.006066666
9.22,0.4537333
9.222,-0.006066666
9.224,-0.01253333
9.226,0.4591333
9.228,-0.01473333
9.23,0.4938666
9.232,0.3464
9.234,-0.006066666
9.236,0.4450666
9.238,-0.006066666
9.24,-0.008199999
9.242,0.4233333
9.244,-0.0028
9.246,0.4797333
9.248,-0.0005999999
9.25,0.4526666
9.252,0.4721333
9.254,-0.006066666
9.256,-0.0005999999
9.258000000000001,0.4710666
9.26,0.4504666
9.262,-0.003866666
9.264,-0.003866666
9.266,0.4852
9.268,-0.009333332
9.27,0.4515333
9.272,-0.009333332
9.274000000000001,0.4103333
9.276,-0.004999999
9.278,0.432
9.28,-0.009333332
9.282,0.3561333
9.284,-0.01146667
9.286,0.4526666
9.288,0.4114
9.290000000000001,-0.007133333
9.292,0.4689333
9.294,-0.007133333
9.296,-0.0028
9.298,0.4775999
9.3,-0.0028
9.302,0.4721333
9.304,-0.0104
9.306000000000001,0.4656666
9.308,-0.006066666
9.31,0.496
9.312,-0.0028
9.314,0.4342
9.316,0.4689333
9.318,-0.004999999
9.32,0.4472
9.322000000000001,-0.0028
9.324,-0.007133333
9.326,0.4288
9.328,-0.0104
9.33,0.3702
9.332,-0.0104
9.334,0.4775999
9.336,0.4482666
9.338000000000001,-0.0158
9.34,-0.0104
9.342,0.4689333
9.344,-0.0028
9.346,0.4689333
9.348,-0.018
9.35,0.483
9.352,-0.004999999
9.354000000000001,0.4852
9.356,0.4548
9.358,0.003733333
9.36,-0.0028
9.362,0.4743333
9.364,0.0004666666
9.366,0.4916666
9.368,0.4125333
9.370000000000001,-0.009333332
9.372,-0.0104
9.374,0.4613333
9.376,0.4613333
9.378,-0.008199999
9.38,0.3691333
9.382,-0.007133333
9.384,0.4450666
9.386000000000001,-0.004999999
9.388,-0.004999999
9.39,0.483
9.392,0.4548
9.394,-0.0028
9.396,0.4396
9.398,-0.008199999
9.4,0.4526666
9.402000000000001,-0.0104
9.404,-0.0104
9.406,0.4775999
9.408,0.4613333
9.41,-0.0028
9.412,-0.0028
9.414,0.4602
9.416,0.4786666
9.418000000000001,-0.0005999999
9.42,0.4906
9.422,-0.001733333
9.424,0.4786666
9.426,-0.0028
9.428,-0.003866666
9.43,0.4125333
9.432,-0.0104
9.434000000000001,0.4450666
9.436,-0.009333332
9.438,0.4602
9.44,-0.01686667
9.442,0.4364
9.444,-0.007133333
9.446,0.4537333
9.448,0.3572
9.450000000000001,-0.0104
9.452,-0.0005999999
9.454,0.4732666
9.456,0.483
9.458,-0.003866666
9.46,0.0026
9.462,0.4721333
9.464,-0.004999999
9.466000000000001,0.483
9.468,0.4558666
9.47,-0.004999999
9.472,-0.008199999
9.474,0.4656666
9.476,0.483
9.478,-0.003866666
9.48,0.4472
9.482,-0.01146667
9.484,0.432
9.486,-0.01146667
9.488,0.4418
9.49,-0.006066666
9.492,-0.003866666
9.494,0.4558666
9.496,0.4374666
9.498,-0.008199999
9.5,-0.009333332
9.502,0.4624
9.504,-0.004999999
9.506,0.4439333
9.508000000000001,-0.0028
9.51,0.4775999
9.512,0.0004666666
9.514,0.4504666
9.516,-0.008199999
9.518,0.4710666
9.52,0.4602
9.522,-0.0005999999
9.524000000000001,0.0004666666
9.526,0.4797333
9.528,-0.0005999999
9.53,0.4732666
9.532,-0.01146667
9.534,0.4136
9.536,0.4201333
9.538,-0.009333332
9.540000000000001,0.4070666
9.542,-0.006066666
9.544,0.4743333
9.546,-0.006066666
9.548,0.4038666
9.55,-0.004999999
9.552,0.4862666
9.554,-0.01146667
9.556000000000001,0.4244666
9.558,-0.0028
9.56,-0.0028
9.562,0.4548
9.564,0.0004666666
9.566,0.4558666
9.568,-0.006066666
9.57,0.4699999
9.572000000000001,0.4580666
9.574,0.0004666666
9.576,0.4624
9.578,0.001533333
9.58,0.4136
9.582,-0.007133333
9.584,-0.003866666
9.586,0.4580666
9.588000000000001,-0.004999999
9.59,0.4309333
9.592,-0.01253333
9.594,0.4342
9.596,-0.01146667
9.598,0.4558666
9.6,-0.006066666
9.602,0.4678
9.604000000000001,-0.0104
9.606,0.4493999
9.608,-0.006066666
9.61,0.4396
9.612,-0.0005999999
9.614,0.4775999
9.616,-0.001733333
9.618,0.4667333
9.620000000000001,0.4764666
9.622,0.001533333
9.624,-0.004999999
9.626,0.4418
9.628,0.004799999
9.63,0.4852
9.632,-0.01146667
9.634,0.4439333
9.636000000000001,0.4721333
9.638,-0.003866666
9.64,0.4364
9.642,-0.009333332
9.644,0.4255333
9.646,-0.003866666
9.648,0.4092666
9.65,-0.006066666
9.652000000000001,0.3680666
9.654,-0.007133333
9.656,0.4819333
9.658,-0.006066666
9.66,-0.006066666
9.662,0.4526666
9.664,0.4515333
9.666,-0.003866666
9.668000000000001,-0.0028
9.67,0.4732666
9.672,0.4797333
9.674,0.0004666666
9.676,-0.0005999999
9.678,0.483
9.68,0.4613333
9.682,-0.001733333
9.684000000000001,-0.001733333
9.686,0.4873333
9.688,0.4548
9.69,-0.006066666
9.692,-0.004999999
9.694,0.4710666
9.696,0.4710666
9.698,-0.008199999
9.700000000000001,-0.007133333
9.702,0.4070666
9.704,0.4764666
9.706,-0.006066666
9.708,-0.0028
9.71,0.3550666
9.712,-0.0005999999
9.714,0.4992666
9.716000000000001,0.4450666
9.718,-0.003866666
9.72,0.4927333
9.722,-0.006066666
9.724,-0.007133333
9.726,0.4580666
9.728,0.0004666666
9.73,0.4721333
9.732,-0.003866666
9.734,0.4179333
9.736,-0.0005999999
9.738,0.4526666
9.74,0.4764666
9.742,-0.008199999
9.744,-0.009333332
9.746,0.4992666
9.748,-0.001733333
9.75,0.4439333
9.752,-0.006066666
9.754,0.4070666
9.756,0.4396
9.758000000000001,-0.0028
9.76,-0.007133333
9.762,0.4114
9.764,0.4667333
9.766,-0.006066666
9.768,-0.008199999
9.77,0.4082
9.772,0.4840666
9.774000000000001,-0.006066666
9.776,0.3658666
9.778,-0.0104
9.78,0.4667333
9.782,-0.0028
9.784,-0.004999999
9.786,0.4558666
9.788,0.5025333
9.790000000000001,-0.004999999
9.792,-0.003866666
9.794,0.4309333
9.796,0.0004666666
9.798,0.5003333
9.8,-0.0028
9.802,0.3745333
9.804,-0.006066666
9.806000000000001,0.5046666
9.808,0.3951333
9.81,-0.006066666
9.812,0.0004666666
9.814,0.4981999
9.816,0.4450666
9.818,-0.008199999
9.82,0.0004666666
9.822000000000001,0.4840666
9.824,0.4472
9.826,-0.0028
9.828,-0.004999999
9.83,0.4233333
9.832,0.3788666
9.834,-0.0028
9.836,-0.006066666
9.838000000000001,0.4385333
9.84,0.4548
9.842,0.0004666666
9.844,-0.01146667
9.846,0.4602
9.848,0.4428666
9.85,-0.004999999
9.852,-0.0028
9.854000000000001,0.3962666
9.856,0.483
9.858,0.0004666666
9.86,0.4157999
9.862,-0.0028
9.864,-0.0028
9.866,0.4624
9.868,0.406
9.870000000000001,-0.001733333
9.872,-0.0005999999
9.874,0.4450666
9.876,-0.004999999
9.878,0.406
9.88,0.4006
9.882,-0.0028
9.884,-0.0104
9.886000000000001,0.4016666
9.888,-0.004999999
9.89,0.4070666
9.892,-0.004999999
9.894,0.4168666
9.896,0.3908
9.898,-0.004999999
9.9,-0.003866666
9.902000000000001,0.4157999
9.904,-0.0028
9.906,0.4385333
9.908,-0.003866666
9.91,0.4103333
9.912,-0.008199999
9.914,0.4482666
9.916,0.4526666
9.918000000000001,0.0004666666
9.92,0.406
9.922,-0.0028
9.924,-0.008199999
9.926,0.4385333
9.928,0.432
9.93,-0.001733333
9.932,-0.006066666
9.934000000000001,0.4342
9.936,0.4407333
9.938,0.004799999
9.94,-0.003866666
9.942,0.4352666
9.944,0.4385333
9.946,-0.004999999
9.948,-0.0028
9.950000000000001,0.4255333
9.952,-0.0028
9.954,0.4201333
9.956,-0.006066666
9.958,0.4233333
9.96,0.001533333
9.962,0.4233333
9.964,0.4157999
9.966000000000001,-0.009333332
9.968,0.3843333
9.97,-0.0028
9.972,0.4515333
9.974,-0.0028
9.976,-0.008199999
9.978,0.4168666
9.98,0.4038666
9.982000000000001,-0.006066666
9.984,-0.007133333
9.986,0.4407333
9.988,-0.001733333
9.99,0.4580666
9.992,0.0004666666
9.994,0.4352666
9.996,0.0004666666
9.998,0.2596
10.0,-0.003866666
10.002,0.4667333
10.004,0.4721333
10.006,-0.0005999999
10.008000000000001,0.4342
10.01,-0.009333332
10.012,0.4634666
10.014,-0.0005999999
10.016,0.3886666
10.018,-0.003866666
10.02,-0.0028
10.022,0.4764666
10.024000000000001,0.3940666
10.026,-0.004999999
10.028,0.0004666666
10.03,0.4526666
10.032,0.4439333
10.034,-0.004999999
10.036,-0.003866666
10.038,0.4732666
10.040000000000001,-0.01146667
10.042,0.4493999
10.044,-0.004999999
10.046,0.4450666
10.048,-0.008199999
10.05,0.3940666
10.052,-0.0028
10.054,0.4580666
10.056000000000001,0.4526666
10.058,-0.018
10.06,-0.006066666
10.062,0.4580666
10.064,-0.006066666
10.066,0.4168666
10.068,0.3983999
10.07,-0.0104
10.072000000000001,-0.008199999
10.074,0.4201333
10.076,-0.01146667
10.078,0.4233333
10.08,-0.001733333
10.082,0.4092666
10.084,0.4710666
10.086,-0.0005999999
10.088000000000001,0.4515333
10.09,-0.004999999
10.092,-0.009333332
10.094,0.4157999
10.096,0.4775999
10.098,0.0004666666
10.1,-0.007133333
10.102,0.4558666
10.104000000000001,0.4537333
10.106,-0.0005999999
10.108,0.4526666
10.11,-0.0104
10.112,0.3821333
10.114,-0.01146667
10.116,0.4504666
10.118,-0.0005999999
10.120000000000001,-0.008199999
10.122,0.4450666
10.124,0.4396
10.126,-0.009333332
10.128,-0.0104
10.13,0.4222666
10.132,0.4504666
10.134,-0.0104
10.136000000000001,-0.0028
10.138,0.4396
10.14,0.4461333
10.142,-0.0028
10.144,-0.007133333
10.146,0.4764666
10.148,0.432
10.15,-0.001733333
10.152000000000001,-0.006066666
10.154,0.4331333
10.156,0.4591333
10.158,-0.007133333
10.16,-0.008199999
10.162,0.4070666
10.164,-0.008199999
10.166,0.4710666
10.168000000000001,-0.007133333
10.17,0.4201333
10.172,0.0004666666
10.174,0.4504666
10.176,-0.008199999
10.178,0.3767333
10.18,-0.009333332
10.182,0.4146666
10.184000000000001,-0.004999999
10.186,0.3528666
10.188,-0.0028
10.19,0.4439333
10.192,-0.0028
10.194,0.4732666
10.196,-0.0028
10.198,0.4526666
10.200000000000001,-0.008199999
10.202,0.4504666
10.204,-0.0104
10.206,0.4775999
10.208,-0.006066666
10.21,0.3734666
10.212,0.4743333
10.214,-0.006066666
10.216000000000001,0.4038666
10.218,-0.0104
10.22,-0.007133333
10.222,0.4493999
10.224,-0.01253333
10.226,0.4146666
10.228,-0.004999999
10.23,0.4482666
10.232000000000001,-0.006066666
10.234,0.4157999
10.236,-0.01366667
10.238,0.4364
10.24,-0.0005999999
10.242,0.4526666
10.244,-0.004999999
10.246,0.4461333
10.248,0.4385333
10.25,-0.004999999
10.252,0.4493999
10.254,-0.004999999
10.256,-0.008199999
10.258000000000001,0.4331333
10.26,-0.004999999
10.262,0.4775999
10.264,0.3767333
10.266,-0.008199999
10.268,-0.003866666
10.27,0.4591333
10.272,0.4721333
10.274000000000001,-0.006066666
10.276,0.4667333
10.278,-0.006066666
10.28,-0.0005999999
10.282,0.4342
10.284,-0.0028
10.286,0.4786666
10.288,-0.006066666
10.290000000000001,0.432
10.292,0.4753999
10.294,0.0026
10.296,0.4689333
10.298,-0.003866666
10.3,-0.0028
10.302,0.4938666
10.304,0.0004666666
10.306000000000001,0.4873333
10.308,0.4027333
10.31,-0.006066666
10.312,-0.006066666
10.314,0.483
10.316,-0.007133333
10.318,0.4580666
10.32,-0.008199999
10.322000000000001,0.4613333
10.324,-0.004999999
10.326,0.4526666
10.328,-0.007133333
10.33,0.4331333
10.332,-0.004999999
10.334,0.4450666
10.336,0.4114
10.338000000000001,-0.009333332
10.34,-0.003866666
10.342,0.4840666
10.344,-0.006066666
10.346,0.4602
10.348,0.4743333
10.35,-0.006066666
10.352,0.4634666
10.354000000000001,-0.004999999
10.356,-0.004999999
10.358,0.4710666
10.36,-0.001733333
10.362,0.4927333
10.364,0.4819333
10.366,-0.0028
10.368,-0.0104
10.370000000000001,0.3778
10.372,0.4201333
10.374,-0.0104
10.376,0.4331333
10.378,-0.008199999
10.38,-0.001733333
10.382,0.4667333
10.384,0.4656666
10.386000000000001,-0.008199999
10.388,-0.0028
10.39,0.4580666
10.392,0.4786666
10.394,0.001533333
10.396,-0.003866666
10.398,0.4591333
10.4,0.4927333
10.402000000000001,-0.0005999999
10.404,-0.007133333
10.406,0.4938666
10.408,-0.004999999
10.41,0.496
10.412,0.001533333
10.414,0.5035999
10.416,0.4873333
10.418000000000001,-0.006066666
10.42,-0.008199999
10.422,0.4472
10.424,-0.0028
10.426,0.483
10.428,-0.006066666
10.43,0.4136
10.432,0.4265999
10.434000000000001,-0.006066666
10.436,0.4364
10.438,-0.007133333
10.44,-0.008199999
10.442,0.4927333
10.444,0.0004666666
10.446,0.496
10.448,0.4439333
10.450000000000001,-0.0104
10.452,-0.0005999999
10.454,0.5133333
10.456,0.5188
10.458,-0.0028
10.46,0.0004666666
10.462,0.496
10.464,-0.0028
10.466000000000001,0.4807999
10.468,0.4613333
10.47,-0.006066666
10.472,-0.008199999
10.474,0.4927333
10.476,0.4558666
10.478,-0.001733333
10.48,-0.004999999
10.482000000000001,0.4906
10.484,-0.0028
10.486,0.4613333
10.488,-0.006066666
10.49,0.4396
10.492,-0.0158
10.494,0.5035999
10.496,-0.0028
10.498,0.4342
10.5,-0.006066666
10.502,0.4493999
10.504,-0.0028
10.506,0.4884
10.508000000000001,0.0026
10.51,0.5046666
10.512,-0.0005999999
10.514,0.5035999
10.516,-0.0005999999
10.518,0.4906
10.52,-0.0005999999
10.522,0.5144666
10.524000000000001,-0.004999999
10.526,0.4916666
10.528,-0.003866666
10.53,0.4385333
10.532,0.4753999
10.534,-0.006066666
10.536,0.496
10.538,-0.003866666
10.540000000000001,-0.004999999
10.542,0.4884
10.544,-0.01146667
10.546,0.4396
10.548,-0.004999999
10.55,0.4114
10.552,-0.003866666
10.554,0.4819333
10.556000000000001,-0.0028
10.558,0.4732666
10.56,0.0026
10.562,0.4992666
10.564,0.001533333
10.566,0.5013999
10.568,0.4906
10.57,0.0004666666
10.572000000000001,0.5144666
10.574,-0.0028
10.576,-0.01366667
10.578,0.4862666
10.58,-0.004999999
10.582,0.5003333
10.584,-0.006066666
10.586,0.4211999
10.588000000000001,-0.0104
10.59,0.4840666
10.592,0.483
10.594,-0.009333332
10.596,0.4049333
10.598,-0.008199999
10.6,0.4439333
10.602,-0.0104
10.604000000000001,-0.006066666
10.606,0.5133333
10.608,-0.006066666
10.61,0.4645333
10.612,0.5013999
10.614,-0.0028
10.616,0.4840666
10.618,-0.0028
10.620000000000001,0.0004666666
10.622,0.4667333
10.624,0.001533333
10.626,0.4678
10.628,0.4873333
10.63,-0.008199999
10.632,0.5133333
10.634,-0.003866666
10.636000000000001,-0.004999999
10.638,0.4634666
10.64,-0.004999999
10.642,0.4580666
10.644,-0.008199999
10.646,0.4428666
10.648,-0.008199999
10.65,0.4689333
10.652000000000001,-0.006066666
10.654,0.4656666
10.656,-0.007133333
10.658,0.4396
10.66,-0.009333332
10.662,0.483
10.664,0.0026
10.666,0.4949333
10.668000000000001,-0.0005999999
10.67,0.4515333
10.672,0.004799999
10.674,0.4689333
10.676,0.4624
10.678,-0.007133333
10.68,-0.004999999
10.682,0.5025333
10.684000000000001,-0.01146667
10.686,0.4418
10.688,-0.006066666
10.69,0.4548
10.692,0.4906
10.694,-0.01146667
10.696,0.4526666
10.698,-0.008199999
10.700000000000001,0.3528666
10.702,-0.007133333
10.704,-0.0028
10.706,0.4634666
10.708,-0.0028
10.71,0.4558666
10.712,-0.007133333
10.714,0.4656666
10.716000000000001,0.419
10.718,-0.0028
10.72,-0.001733333
10.722,0.496
10.724,0.4667333
10.726,-0.0028
10.728,-0.009333332
10.73,0.4895333
10.732000000000001,0.4753999
10.734,-0.003866666
10.736,0.4775999
10.738,-0.004999999
10.74,-0.008199999
10.742,0.4624
10.744,-0.01366667
10.746,0.4613333
10.748000000000001,-0.01473333
10.75,0.3582666
10.752,-0.009333332
10.754,0.4461333
10.756,-0.006066666
10.758000000000001,0.4201333
10.76,-0.007133333
10.762,0.4602
10.764,0.001533333
10.766,0.4331333
10.768,0.4906
10.77,-0.007133333
10.772,0.4504666
10.774000000000001,-0.0028
10.776,0.001533333
10.778,0.4678
10.78,0.0026
10.782,0.4753999
10.784,-0.0028
10.786,0.4710666
10.788,-0.009333332
10.790000000000001,0.4114
10.792,0.4689333
10.794,-0.003866666
10.796,0.4548
10.798,-0.008199999
10.8,-0.008199999
10.802,0.4689333
10.804,0.3788666
10.806000000000001,-0.004999999
10.808,0.3876
10.81,-0.0104
10.812,-0.01146667
10.814,0.4114
10.816,-0.008199999
10.818,0.4244666
10.82,-0.004999999
10.822000000000001,0.4157999
10.824,-0.006066666
10.826,0.4775999
10.828,-0.0028
10.83,0.4352666
10.832,0.4482666
10.834,0.0004666666
10.836,-0.01366667
10.838000000000001,0.4385333
10.84,-0.004999999
10.842,0.4428666
10.844,-0.006066666
10.846,0.3713333
10.848,-0.01253333
10.85,0.4364
10.852,0.4472
10.854000000000001,-0.008199999
10.856,0.38
10.858,-0.006066666
10.86,0.4179333
10.862,-0.01473333
10.864,-0.006066666
10.866,0.4482666
10.868,-0.006066666
10.870000000000001,0.4070666
10.872,-0.01146667
10.874,0.4385333
10.876,-0.0028
10.878,0.4602
10.88,0.4092666
10.882,-0.01253333
10.884,0.0004666666
10.886000000000001,0.4732666
10.888,0.4667333
10.89,-0.006066666
10.892,0.4352666
10.894,-0.007133333
10.896,0.4146666
10.898,-0.007133333
10.9,-0.006066666
10.902000000000001,0.4439333
10.904,-0.006066666
10.906,0.457
10.908,-0.01253333
10.91,0.4298666
10.912,-0.009333332
10.914,0.4493999
10.916,0.3333333
10.918000000000001,-0.009333332
10.92,-0.0104
10.922,0.4504666
10.924,-0.003866666
10.926,0.4244666
10.928,-0.008199999
10.93,0.4710666
10.932,0.4689333
10.934000000000001,-0.004999999
10.936,0.4927333
10.938,0.005866666
10.94,-0.004999999
10.942,0.4407333
10.944,0.4906
10.946,-0.003866666
10.948,-0.01146667
10.950000000000001,0.4211999
10.952,0.4493999
10.954,-0.006066666
10.956,0.4634666
10.958,-0.01146667
10.96,0.4450666
10.962,-0.008199999
10.964,-0.009333332
10.966000000000001,0.4265999
10.968,-0.003866666
10.97,0.4895333
10.972,0.4146666
10.974,-0.008199999
10.976,-0.008199999
10.978,0.4548
10.98,-0.006066666
10.982000000000001,0.4146666
10.984,-0.006066666
10.986,0.4873333
10.988,0.4667333
10.99,0.0004666666
10.992,-0.008199999
10.994,0.4938666
10.996,0.5035999
10.998000000000001,-0.006066666
11.0,-0.0028
11.002,0.4689333
11.004,-0.007133333
11.006,0.4082
11.008000000000001,-0.008199999
11.01,0.4407333
11.012,0.4602
11.014,-0.006066666
11.016,0.3756666
11.018,-0.008199999
11.02,0.4775999
11.022,-0.004999999
11.024000000000001,0.4179333
11.026,-0.0028
11.028,0.4157999
11.03,-0.0158
11.032,0.001533333
11.034,0.483
11.036,-0.006066666
11.038,0.4526666
11.040000000000001,-0.0028
11.042,0.4916666
11.044,0.001533333
11.046,0.5013999
11.048,0.001533333
11.05,0.5013999
11.052,0.4645333
11.054,-0.01146667
11.056000000000001,0.4699999
11.058,-0.008199999
11.06,-0.0104
11.062,0.483
11.064,-0.008199999
11.066,0.4222666
11.068,-0.01146667
11.07,0.4580666
11.072000000000001,-0.01253333
11.074,0.4884
11.076,-0.01146667
11.078,0.3366
11.08,0.0004666666
11.082,0.4807999
11.084,-0.0028
11.086,0.4439333
11.088000000000001,-0.0028
11.09,0.4385333
11.092,0.483
11.094,-0.0028
11.096,0.4906
11.098,-0.0005999999
11.1,-0.008199999
11.102,0.483
11.104000000000001,0.4981999
11.106,-0.001733333
11.108,-0.009333332
11.11,0.419
11.112,0.4721333
11.114,-0.006066666
11.116,0.4537333
11.118,-0.006066666
11.120000000000001,-0.01253333
11.122,0.4591333
11.124,-0.01473333
11.126,0.4938666
11.128,0.3464
11.13,-0.006066666
11.132,0.4450666
11.134,-0.006066666
11.136000000000001,-0.008199999
11.138,0.4233333
11.14,-0.0028
11.142,0.4797333
11.144,-0.0005999999
11.146,0.4526666
11.148,0.4721333
11.15,-0.006066666
11.152000000000001,-0.0005999999
11.154,0.4710666
11.156,0.4504666
11.158,-0.003866666
11.16,-0.003866666
11.162,0.4852
11.164,-0.009333332
11.166,0.4515333
11.168000000000001,-0.009333332
11.17,0.4103333
11.172,-0.004999999
11.174,0.432
11.176,-0.009333332
11.178,0.3561333
11.18,-0.01146667
11.182,0.4526666
11.184000000000001,0.4114
11.186,-0.007133333
11.188,0.4689333
11.19,-0.007133333
11.192,-0.0028
11.194,0.4775999
11.196,-0.0028
11.198,0.4721333
11.200000000000001,-0.0104
11.202,0.4656666
11.204,-0.006066666
11.206,0.496
11.208,-0.0028
11.21,0.4342
11.212,0.4689333
11.214,-0.004999999
11.216000000000001,0.4472
11.218,-0.0028
11.22,-0.007133333
11.222,0.4288
11.224,-0.0104
11.226,0.3702
11.228,-0.0104
11.23,0.4775999
11.232000000000001,0.4482666
11.234,-0.0158
11.236,-0.0104
11.238,0.4689333
11.24,-0.0028
11.242,0.4689333
11.244,-0.018
11.246,0.483
11.248000000000001,-0.004999999
11.25,0.4852
11.252,0.4548
11.254,0.003733333
11.256,-0.0028
11.258000000000001,0.4743333
11.26,0.0004666666
11.262,0.4916666
11.264,0.4125333
11.266,-0.009333332
11.268,-0.0104
11.27,0.4613333
11.272,0.4613333
11.274000000000001,-0.008199999
11.276,0.3691333
11.278,-0.007133333
11.28,0.4450666
11.282,-0.004999999
11.284,-0.004999999
11.286,0.483
11.288,0.4548
11.290000000000001,-0.0028
11.292,0.4396
11.294,-0.008199999
11.296,0.4526666
11.298,-0.0104
11.3,-0.0104
11.302,0.4775999
11.304,0.4613333
11.306000000000001,-0.0028
11.308,-0.0028
11.31,0.4602
11.312,0.4786666
11.314,-0.0005999999
11.316,0.4906
11.318,-0.001733333
11.32,0.4786666
11.322000000000001,-0.0028
11.324,-0.003866666
11.326,0.4125333
11.328,-0.0104
11.33,0.4450666
11.332,-0.009333332
11.334,0.4602
11.336,-0.01686667
11.338000000000001,0.4364
11.34,-0.007133333
11.342,0.4537333
11.344,0.3572
11.346,-0.0104
11.348,-0.0005999999
11.35,0.4732666
11.352,0.483
11.354000000000001,-0.003866666
11.356,0.0026
11.358,0.4721333
11.36,-0.004999999
11.362,0.483
11.364,0.4558666
11.366,-0.004999999
11.368,-0.008199999
11.370000000000001,0.4656666
11.372,0.483
11.374,-0.003866666
11.376,0.4472
11.378,-0.01146667
11.38,0.432
11.382,-0.01146667
11.384,0.4418
11.386000000000001,-0.006066666
11.388,-0.003866666
11.39,0.4558666
11.392,0.4374666
11.394,-0.008199999
11.396,-0.009333332
11.398,0.4624
11.4,-0.004999999
11.402000000000001,0.4439333
11.404,-0.0028
11.406,0.4775999
11.408,0.0004666666
11.41,0.4504666
11.412,-0.008199999
11.414,0.4710666
11.416,0.4602
11.418000000000001,-0.0005999999
11.42,0.0004666666
11.422,0.4797333
11.424,-0.0005999999
11.426,0.4732666
11.428,-0.01146667
11.43,0.4136
11.432,0.4201333
11.434000000000001,-0.009333332
11.436,0.4070666
11.438,-0.006066666
11.44,0.4743333
11.442,-0.006066666
11.444,0.4038666
11.446,-0.004999999
11.448,0.4862666
11.450000000000001,-0.01146667
11.452,0.4244666
11.454,-0.0028
11.456,-0.0028
11.458,0.4548
11.46,0.0004666666
11.462,0.4558666
11.464,-0.006066666
11.466000000000001,0.4699999
11.468,0.4580666
11.47,0.0004666666
11.472,0.4624
11.474,0.001533333
11.476,0.4136
11.478,-0.007133333
11.48,-0.003866666
11.482000000000001,0.4580666
11.484,-0.004999999
11.486,0.4309333
11.488,-0.01253333
11.49,0.4342
11.492,-0.01146667
11.494,0.4558666
11.496,-0.006066666
11.498000000000001,0.4678
11.5,-0.0104
11.502,0.4493999
11.504,-0.006066666
11.506,0.4396
11.508000000000001,-0.0005999999
11.51,0.4775999
11.512,-0.001733333
11.514000000000001,0.4667333
11.516,0.4764666
11.518,0.001533333
11.52,-0.004999999
11.522,0.4418
11.524000000000001,0.004799999
11.526,0.4852
11.528,-0.01146667
11.53,0.4439333
11.532,0.4721333
11.534,-0.003866666
11.536,0.4364
11.538,-0.009333332
11.540000000000001,0.4255333
11.542,-0.003866666
11.544,0.4092666
11.546,-0.006066666
11.548,0.3680666
11.55,-0.007133333
11.552,0.4819333
11.554,-0.006066666
11.556000000000001,-0.006066666
11.558,0.4526666
11.56,0.4515333
11.562,-0.003866666
11.564,-0.0028
11.566,0.4732666
11.568,0.4797333
11.57,0.0004666666
11.572000000000001,-0.0005999999
11.574,0.483
11.576,0.4613333
11.578,-0.001733333
11.58,-0.001733333
11.582,0.4873333
11.584,0.4548
11.586,-0.006066666
11.588000000000001,-0.004999999
11.59,0.4710666
11.592,0.4710666
11.594,-0.008199999
11.596,-0.007133333
11.598,0.4070666
11.6,0.4764666
11.602,-0.006066666
11.604000000000001,-0.0028
11.606,0.3550666
11.608,-0.0005999999
11.61,0.4992666
11.612,0.4450666
11.614,-0.003866666
11.616,0.4927333
11.618,-0.006066666
11.620000000000001,-0.007133333
11.622,0.4580666
11.624,0.0004666666
11.626,0.4721333
11.628,-0.003866666
11.63,0.4179333
11.632,-0.0005999999
11.634,0.4526666
11.636000000000001,0.4764666
11.638,-0.008199999
11.64,-0.009333332
11.642,0.4992666
11.644,-0.001733333
11.646,0.4439333
11.648,-0.006066666
11.65,0.4070666
11.652000000000001,0.4396
11.654,-0.0028
11.656,-0.007133333
11.658,0.4114
11.66,0.4667333
11.662,-0.006066666
11.664,-0.008199999
11.666,0.4082
11.668000000000001,0.4840666
11.67,-0.006066666
11.672,0.3658666
11.674,-0.0104
11.676,0.4667333
11.678,-0.0028
11.68,-0.004999999
11.682,0.4558666
11.684000000000001,0.5025333
11.686,-0.004999999
11.688,-0.003866666
11.69,0.4309333
11.692,0.0004666666
11.694,0.5003333
11.696,-0.0028
11.698,0.3745333
11.700000000000001,-0.006066666
11.702,0.5046666
11.704,0.3951333
11.706,-0.006066666
11.708,0.0004666666
11.71,0.4981999
11.712,0.4450666
11.714,-0.008199999
11.716000000000001,0.0004666666
11.718,0.4840666
11.72,0.4472
11.722,-0.0028
11.724,-0.004999999
11.726,0.4233333
11.728,0.3788666
11.73,-0.0028
11.732000000000001,-0.006066666
11.734,0.4385333
11.736,0.4548
11.738,0.0004666666
11.74,-0.01146667
11.742,0.4602
11.744,0.4428666
11.746,-0.004999999
11.748000000000001,-0.0028
11.75,0.3962666
11.752,0.483
11.754,0.0004666666
11.756,0.4157999
11.758000000000001,-0.0028
11.76,-0.0028
11.762,0.4624
11.764000000000001,0.406
11.766,-0.001733333
11.768,-0.0005999999
11.77,0.4450666
11.772,-0.004999999
11.774000000000001,0.406
11.776,0.4006
11.778,-0.0028
11.78,-0.0104
11.782,0.4016666
11.784,-0.004999999
11.786,0.4070666
11.788,-0.004999999
11.790000000000001,0.4168666
11.792,0.3908
11.794,-0.004999999
11.796,-0.003866666
11.798,0.4157999
11.8,-0.0028
11.802,0.4385333
11.804,-0.003866666
11.806000000000001,0.4103333
11.808,-0.008199999
11.81,0.4482666
11.812,0.4526666
11.814,0.0004666666
11.816,0.406
11.818,-0.0028
11.82,-0.008199999
11.822000000000001,0.4385333
11.824,0.432
11.826,-0.001733333
11.828,-0.006066666
11.83,0.4342
11.832,0.4407333
11.834,0.004799999
11.836,-0.003866666
11.838000000000001,0.4352666
11.84,0.4385333
11.842,-0.004999999
11.844,-0.0028
11.846,0.4255333
11.848,-0.0028
11.85,0.4201333
11.852,-0.006066666
11.854000000000001,0.4233333
11.856,0.001533333
11.858,0.4233333
11.86,0.4157999
11.862,-0.009333332
11.864,0.3843333
11.866,-0.0028
11.868,0.4515333
11.870000000000001,-0.0028
11.872,-0.008199999
11.874,0.4168666
11.876,0.4038666
11.878,-0.006066666
11.88,-0.007133333
11.882,0.4407333
11.884,-0.001733333
11.886000000000001,0.4580666
11.888,0.0004666666
11.89,0.4352666
11.892,0.0004666666
11.894,0.4418
11.896,0.4428666
11.898,-0.003866666
11.9,0.0004666666
11.902000000000001,0.4743333
11.904,-0.003866666
11.906,0.4526666
11.908,-0.004999999
11.91,0.4482666
11.912,-0.004999999
11.914,0.3843333
11.916,-0.009333332
11.918000000000001,0.4331333
11.92,0.4580666
11.922,-0.0005999999
11.924,-0.01146667
11.926,0.4309333
11.928,-0.0005999999
11.93,0.4537333
11.932,0.4526666
11.934000000000001,-0.006066666
11.936,0.0004666666
11.938,0.4807999
11.94,-0.003866666
11.942,0.4613333
11.944,-0.0028
11.946,0.4580666
11.948,-0.004999999
11.950000000000001,0.4233333
11.952,0.4645333
11.954,-0.0028
11.956,0.3767333
11.958,-0.003866666
11.96,-0.0028
11.962,0.4450666
11.964,0.3973333
11.966000000000001,-0.004999999
11.968,-0.004999999
11.97,0.4255333
11.972,0.4526666
11.974,-0.0028
11.976,-0.006066666
11.978,0.4558666
11.98,-0.0005999999
11.982000000000001,0.4418
11.984,-0.009333332
11.986,0.4255333
11.988,0.4504666
11.99,-0.001733333
11.992,-0.006066666
11.994,0.3995333
11.996,0.4504666
11.998000000000001,0.0026
12.0,0.3496
12.002,-0.0104
12.004,-0.0028
12.006,0.4396
12.008000000000001,0.4461333
12.01,-0.0028
12.012,-0.007133333
12.014000000000001,0.4764666
12.016,0.432
12.018,-0.001733333
12.02,-0.006066666
12.022,0.4331333
12.024000000000001,0.4591333
12.026,-0.007133333
12.028,-0.008199999
12.030000000000001,0.4070666
12.032,-0.008199999
12.034,0.4710666
12.036,-0.007133333
12.038,0.4201333
12.040000000000001,0.0004666666
12.042,0.4504666
12.044,-0.008199999
12.046,0.3767333
12.048,-0.009333332
12.05,0.4146666
12.052,-0.004999999
12.054,0.3528666
12.056000000000001,-0.0028
12.058,0.4439333
12.06,-0.0028
12.062,0.4732666
12.064,-0.0028
12.066,0.4526666
12.068,-0.008199999
12.07,0.4504666
12.072000000000001,-0.0104
12.074,0.4775999
12.076,-0.006066666
12.078,0.3734666
12.08,0.4743333
12.082,-0.006066666
12.084,0.4038666
12.086,-0.0104
12.088000000000001,-0.007133333
12.09,0.4493999
12.092,-0.01253333
12.094,0.4146666
12.096,-0.004999999
12.098,0.4482666
12.1,-0.006066666
12.102,0.4157999
12.104000000000001,-0.01366667
12.106,0.4364
12.108,-0.0005999999
12.11,0.4526666
12.112,-0.004999999
12.114,0.4461333
12.116,0.4385333
12.118,-0.004999999
12.120000000000001,0.4493999
12.122,-0.004999999
12.124,-0.008199999
12.126,0.4331333
12.128,-0.004999999
12.13,0.4775999
12.132,0.3767333
12.134,-0.008199999
12.136000000000001,-0.003866666
12.138,0.4591333
12.14,0.4721333
12.142,-0.006066666
12.144,0.4667333
12.146,-0.006066666
12.148,-0.0005999999
12.15,0.4342
12.152000000000001,-0.0028
12.154,0.4786666
12.156,-0.006066666
12.158,0.432
12.16,0.4753999
12.162,0.0026
12.164,0.4689333
12.166,-0.003866666
12.168000000000001,-0.0028
12.17,0.4938666
12.172,0.0004666666
12.174,0.4873333
12.176,0.4027333
12.178,-0.006066666
12.18,-0.006066666
12.182,0.483
12.184000000000001,-0.007133333
12.186,0.4580666
12.188,-0.008199999
12.19,0.4613333
12.192,-0.004999999
12.194,0.4526666
12.196,-0.007133333
12.198,0.4331333
12.200000000000001,-0.004999999
12.202,0.4450666
12.204,0.4114
12.206,-0.009333332
12.208,-0.003866666
12.21,0.4840666
12.212,-0.006066666
12.214,0.4602
12.216000000000001,0.4743333
12.218,-0.006066666
12.22,0.4634666
12.222,-0.004999999
12.224,-0.004999999
12.226,0.4710666
12.228,-0.001733333
12.23,0.4927333
12.232000000000001,0.4819333
12.234,-0.0028
12.236,-0.0104
12.238,0.3778
12.24,0.4201333
12.242,-0.0104
12.244,0.4331333
12.246,-0.008199999
12.248000000000001,-0.001733333
12.25,0.4667333
12.252,0.4656666
12.254,-0.008199999
12.256,-0.0028
12.258000000000001,0.4580666
12.26,0.4786666
12.262,0.001533333
12.264000000000001,-0.003866666
12.266,0.4591333
12.268,0.4927333
12.27,-0.0005999999
12.272,-0.007133333
12.274000000000001,0.4938666
12.276,-0.004999999
12.278,0.496
12.280000000000001,0.001533333
12.282,0.5035999
12.284,0.4873333
12.286,-0.006066666
12.288,-0.008199999
12.290000000000001,0.4472
12.292,-0.0028
12.294,0.483
12.296,-0.006066666
12.298,0.4136
12.3,0.4265999
12.302,-0.006066666
12.304,0.4364
12.306000000000001,-0.007133333
12.308,-0.008199999
12.31,0.4927333
12.312,0.0004666666
12.314,0.496
12.316,0.4439333
12.318,-0.0104
12.32,-0.0005999999
12.322000000000001,0.5133333
12.324,0.5188
12.326,-0.0028
12.328,0.0004666666
12.33,0.496
12.332,-0.0028
12.334,0.4807999
12.336,0.4613333
12.338000000000001,-0.006066666
12.34,-0.008199999
12.342,0.4927333
12.344,0.4558666
12.346,-0.001733333
12.348,-0.004999999
12.35,0.4906
12.352,-0.0028
12.354000000000001,0.4613333
12.356,-0.006066666
12.358,0.4396
12.36,-0.0158
12.362,0.5035999
12.364,-0.0028
12.366,0.4342
12.368,-0.006066666
12.370000000000001,0.4493999
12.372,-0.0028
12.374,0.4884
12.376,0.0026
12.378,0.5046666
12.38,-0.0005999999
12.382,0.5035999
12.384,-0.0005999999
12.386000000000001,0.4906
12.388,-0.0005999999
12.39,0.5144666
12.392,-0.004999999
12.394,0.4916666
12.396,-0.003866666
12.398,0.4385333
12.4,0.4753999
12.402000000000001,-0.006066666
12.404,0.496
12.406,-0.003866666
12.408,-0.004999999
12.41,0.4884
12.412,-0.01146667
12.414,0.4396
12.416,-0.004999999
12.418000000000001,0.4114
12.42,-0.003866666
12.422,0.4819333
12.424,-0.0028
12.426,0.4732666
12.428,0.0026
12.43,0.4992666
12.432,0.001533333
12.434000000000001,0.5013999
12.436,0.4906
12.438,0.0004666666
12.44,0.5144666
12.442,-0.0028
12.444,-0.01366667
12.446,0.4862666
12.448,-0.004999999
12.450000000000001,0.5003333
12.452,-0.006066666
12.454,0.4211999
12.456,-0.0104
12.458,0.4840666
12.46,0.483
12.462,-0.009333332
12.464,0.4049333
12.466000000000001,-0.008199999
12.468,0.4439333
12.47,-0.0104
12.472,-0.006066666
12.474,0.5133333
12.476,-0.006066666
12.478,0.4645333
12.48,0.5013999
12.482000000000001,-0.0028
12.484,0.4840666
12.486,-0.0028
12.488,0.0004666666
12.49,0.4667333
12.492,0.001533333
12.494,0.4678
12.496,0.4873333
12.498000000000001,-0.008199999
12.5,0.5133333
12.502,-0.003866666
12.504,-0.004999999
12.506,0.4634666
12.508000000000001,-0.004999999
12.51,0.4580666
12.512,-0.008199999
12.514000000000001,0.4428666
12.516,-0.008199999
12.518,0.4689333
12.52,-0.006066666
12.522,0.4656666
12.524000000000001,-0.007133333
12.526,0.4396
12.528,-0.009333332
12.530000000000001,0.483
12.532,0.0026
12.534,0.4949333
12.536,-0.0005999999
12.538,0.4515333
12.540000000000001,0.004799999
12.542,0.4689333
12.544,0.4624
12.546,-0.007133333
12.548,-0.004999999
12.55,0.5025333
12.552,-0.01146667
12.554,0.4418
12.556000000000001,-0.006066666
12.558,0.4548
12.56,0.4906
12.562,-0.01146667
12.564,0.4526666
12.566,-0.008199999
12.568,0.3528666
12.57,-0.007133333
12.572000000000001,-0.0028
12.574,0.4634666
12.576,-0.0028
12.578,0.4558666
12.58,-0.007133333
12.582,0.4656666
12.584,0.419
12.586,-0.0028
12.588000000000001,-0.001733333
12.59,0.496
12.592,0.4667333
12.594,-0.0028
12.596,-0.009333332
12.598,0.4895333
12.6,0.4753999
12.602,-0.003866666
12.604000000000001,0.4775999
12.606,-0.004999999
12.608,-0.008199999
12.61,0.4624
12.612,-0.01366667
12.614,0.4613333
12.616,-0.01473333
12.618,0.3582666
12.620000000000001,-0.009333332
12.622,0.4461333
12.624,-0.006066666
12.626,0.4201333
12.628,-0.007133333
12.63,0.4602
12.632,0.001533333
12.634,0.4331333
12.636000000000001,0.4906
12.638,-0.007133333
12.64,0.4504666
12.642,-0.0028
12.644,0.001533333
12.646,0.4678
12.648,0.0026
12.65,0.4753999
12.652000000000001,-0.0028
12.654,0.4710666
12.656,-0.009333332
12.658,0.4114
12.66,0.4689333
12.662,-0.003866666
12.664,0.4548
12.666,-0.008199999
12.668000000000001,-0.008199999
12.67,0.4689333
12.672,0.3788666
12.674,-0.004999999
12.676,0.3876
12.678,-0.0104
12.68,-0.01146667
12.682,0.4114
12.684000000000001,-0.008199999
12.686,0.4244666
12.688,-0.004999999
12.69,0.4157999
12.692,-0.006066666
12.694,0.4775999
12.696,-0.0028
12.698,0.4352666
12.700000000000001,0.4482666
12.702,0.0004666666
12.704,-0.01366667
12.706,0.4385333
12.708,-0.004999999
12.71,0.4428666
12.712,-0.006066666
12.714,0.3713333
12.716000000000001,-0.01253333
12.718,0.4364
12.72,0.4472
12.722,-0.008199999
12.724,0.38
12.726,-0.006066666
12.728,0.4179333
12.73,-0.01473333
12.732000000000001,-0.006066666
12.734,0.4482666
12.736,-0.006066666
12.738,0.4070666
12.74,-0.01146667
12.742,0.4385333
12.744,-0.0028
12.746,0.4602
12.748000000000001,0.4092666
12.75,-0.01253333
12.752,0.0004666666
12.754,0.4732666
12.756,0.4667333
12.758000000000001,-0.006066666
12.76,0.4352666
12.762,-0.007133333
12.764000000000001,0.4146666
12.766,-0.007133333
12.768,-0.006066666
12.77,0.4439333
12.772,-0.006066666
12.774000000000001,0.457
12.776,-0.01253333
12.778,0.4298666
12.780000000000001,-0.009333332
12.782,0.4493999
12.784,0.3333333
12.786,-0.009333332
12.788,-0.0104
12.790000000000001,0.4504666
12.792,-0.003866666
12.794,0.4244666
12.796000000000001,-0.008199999
12.798,0.4710666
12.8,0.4689333
12.802,-0.004999999
12.804,0.4927333
12.806000000000001,0.005866666
12.808,-0.004999999
12.81,0.4407333
12.812,0.4906
12.814,-0.003866666
12.816,-0.01146667
12.818,0.4211999
12.82,0.4493999
12.822000000000001,-0.006066666
12.824,0.4634666
12.826,-0.01146667
12.828,0.4450666
12.83,-0.008199999
12.832,-0.009333332
12.834,0.4265999
12.836,-0.003866666
12.838000000000001,0.4895333
12.84,0.4146666
12.842,-0.008199999
12.844,-0.008199999
12.846,0.4548
12.848,-0.006066666
12.85,0.4146666
12.852,-0.006066666
12.854000000000001,0.4873333
12.856,0.4667333
12.858,0.0004666666
12.86,-0.008199999
12.862,0.4938666
12.864,0.5035999
12.866,-0.006066666
12.868,-0.0028
12.870000000000001,0.4689333
12.872,-0.007133333
12.874,0.4082
12.876,-0.008199999
12.878,0.4407333
12.88,0.4602
12.882,-0.006066666
12.884,0.3756666
12.886000000000001,-0.008199999
12.888,0.4775999
12.89,-0.004999999
12.892,0.4179333
12.894,-0.0028
12.896,0.4157999
12.898,-0.0158
12.9,0.001533333
12.902000000000001,0.483
12.904,-0.006066666
12.906,0.4526666
12.908,-0.0028
12.91,0.4916666
12.912,0.001533333
12.914,0.5013999
12.916,0.001533333
12.918000000000001,0.5013999
12.92,0.4645333
12.922,-0.01146667
12.924,0.4699999
12.926,-0.008199999
12.928,-0.0104
12.93,0.483
12.932,-0.008199999
12.934000000000001,0.4222666
12.936,-0.01146667
12.938,0.4580666
12.94,-0.01253333
12.942,0.4884
12.944,-0.01146667
12.946,0.3366
12.948,0.0004666666
12.950000000000001,0.4807999
12.952,-0.0028
12.954,0.4439333
12.956,-0.0028
12.958,0.4385333
12.96,0.483
12.962,-0.0028
12.964,0.4906
12.966000000000001,-0.0005999999
12.968,-0.008199999
12.97,0.483
12.972,0.4981999
12.974,-0.001733333
12.976,-0.009333332
12.978,0.419
12.98,0.4721333
12.982000000000001,-0.006066666
12.984,0.4537333
12.986,-0.006066666
12.988,-0.01253333
12.99,0.4591333
12.992,-0.01473333
12.994,0.4938666
12.996,0.3464
12.998000000000001,-0.006066666
13.0,0.4450666
13.002,-0.006066666
13.004,-0.008199999
13.006,0.4233333
13.008000000000001,-0.0028
13.01,0.4797333
13.012,-0.0005999999
13.014000000000001,0.4526666
13.016,0.4721333
13.018,-0.006066666
13.02,-0.0005999999
13.022,0.4710666
13.024000000000001,0.4504666
13.026,-0.003866666
13.028,-0.003866666
13.030000000000001,0.4852
13.032,-0.009333332
13.034,0.4515333
13.036,-0.009333332
13.038,0.4103333
13.040000000000001,-0.004999999
13.042,0.432
13.044,-0.009333332
13.046000000000001,0.3561333
13.048,-0.01146667
13.05,0.4526666
13.052,0.4114
13.054,-0.007133333
13.056000000000001,0.4689333
13.058,-0.007133333
13.06,-0.0028
13.062,0.4775999
13.064,-0.0028
13.066,0.4721333
13.068,-0.0104
13.07,0.4656666
13.072000000000001,-0.006066666
13.074,0.496
13.076,-0.0028
13.078,0.4342
13.08,0.4689333
13.082,-0.004999999
13.084,0.4472
13.086,-0.0028
13.088000000000001,-0.007133333
13.09,0.4288
13.092,-0.0104
13.094,0.3702
13.096,-0.0104
13.098,0.4775999
13.1,0.4482666
13.102,-0.0158
13.104000000000001,-0.0104
13.106,0.4689333
13.108,-0.0028
13.11,0.4689333
13.112,-0.018
13.114,0.483
13.116,-0.004999999
13.118,0.4852
13.120000000000001,0.4548
13.122,0.003733333
13.124,-0.0028
13.126,0.4743333
13.128,0.0004666666
13.13,0.4916666
13.132,0.4125333
13.134,-0.009333332
13.136000000000001,-0.0104
13.138,0.4613333
13.14,0.4613333
13.142,-0.008199999
13.144,0.3691333
13.146,-0.007133333
13.148,0.4450666
13.15,-0.004999999
13.152000000000001,-0.004999999
13.154,0.483
13.156,0.4548
13.158,-0.0028
13.16,0.4396
13.162,-0.008199999
13.164,0.4526666
13.166,-0.0104
13.168000000000001,-0.0104
13.17,0.4775999
13.172,0.4613333
13.174,-0.0028
13.176,-0.0028
13.178,0.4602
13.18,0.4786666
13.182,-0.0005999999
13.184000000000001,0.4906
13.186,-0.001733333
13.188,0.4786666
13.19,-0.0028
13.192,-0.003866666
13.194,0.4125333
13.196,-0.0104
13.198,0.4450666
13.200000000000001,-0.009333332
13.202,0.4602
13.204,-0.01686667
13.206,0.4364
13.208,-0.007133333
13.21,0.4537333
13.212,0.3572
13.214,-0.0104
13.216000000000001,-0.0005999999
13.218,0.4732666
13.22,0.483
13.222,-0.003866666
13.224,0.0026
13.226,0.4721333
13.228,-0.004999999
13.23,0.483
13.232000000000001,0.4558666
13.234,-0.004999999
13.236,-0.008199999
13.238,0.4656666
13.24,0.483
13.242,-0.003866666
13.244,0.4472
13.246,-0.01146667
13.248000000000001,0.432
13.25,-0.01146667
13.252,0.4418
13.254,-0.006066666
13.256,-0.003866666
13.258000000000001,0.4558666
13.26,0.4374666
13.262,-0.008199999
13.264000000000001,-0.009333332
13.266,0.4624
13.268,-0.004999999
13.27,0.4439333
13.272,-0.0028
13.274000000000001,0.4775999
13.276,0.0004666666
13.278,0.4504666
13.280000000000001,-0.008199999
13.282,0.4710666
13.284,0.4602
13.286,-0.0005999999
13.288,0.0004666666
13.290000000000001,0.4797333
13.292,-0.0005999999
13.294,0.4732666
13.296000000000001,-0.01146667
13.298,0.4136
13.3,0.4201333
13.302,-0.009333332
13.304,0.4070666
13.306000000000001,-0.006066666
13.308,0.4743333
13.31,-0.006066666
13.312000000000001,0.4038666
13.314,-0.004999999
13.316,0.4862666
13.318,-0.01146667
13.32,0.4244666
13.322000000000001,-0.0028
13.324,-0.0028
13.326,0.4548
13.328,0.0004666666
13.33,0.4558666
13.332,-0.006066666
13.334,0.4699999
13.336,0.4580666
13.338000000000001,0.0004666666
13.34,0.4624
13.342,0.001533333
13.344,0.4136
13.346,-0.007133333
13.348,-0.003866666
13.35,0.4580666
13.352,-0.004999999
13.354000000000001,0.4309333
13.356,-0.01253333
13.358,0.4342
13.36,-0.01146667
13.362,0.4558666
13.364,-0.006066666
13.366,0.4678
13.368,-0.0104
13.370000000000001,0.4493999
13.372,-0.006066666
13.374,0.4396
13.376,-0.0005999999
13.378,0.4775999
13.38,-0.001733333
13.382,0.4667333
13.384,0.4764666
13.386000000000001,0.001533333
13.388,-0.004999999
13.39,0.4418
13.392,0.004799999
13.394,0.4852
13.396,-0.01146667
13.398,0.4439333
13.4,0.4721333
13.402000000000001,-0.003866666
13.404,0.4364
13.406,-0.009333332
13.408,0.4255333
13.41,-0.003866666
13.412,0.4092666
13.414,-0.006066666
13.416,0.3680666
13.418000000000001,-0.007133333
13.42,0.4819333
13.422,-0.006066666
13.424,-0.006066666
13.426,0.4526666
13.428,0.4515333
13.43,-0.003866666
13.432,-0.0028
13.434000000000001,0.4732666
13.436,0.4797333
13.438,0.0004666666
13.44,-0.0005999999
13.442,0.483
13.444,0.4613333
13.446,-0.001733333
13.448,-0.001733333
13.450000000000001,0.4873333
13.452,0.4548
13.454,-0.006066666
13.456,-0.004999999
13.458,0.4710666
13.46,0.4710666
13.462,-0.008199999
13.464,-0.007133333
13.466000000000001,0.4070666
13.468,0.4764666
13.47,-0.006066666
13.472,-0.0028
13.474,0.3550666
13.476,-0.0005999999
13.478,0.4992666
13.48,0.4450666
13.482000000000001,-0.003866666
13.484,0.4927333
13.486,-0.006066666
13.488,-0.007133333
13.49,0.4580666
13.492,0.0004666666
13.494,0.4721333
13.496,-0.003866666
13.498000000000001,0.4179333
13.5,-0.0005999999
13.502,0.4526666
13.504,0.4764666
13.506,-0.008199999
13.508000000000001,-0.009333332
13.51,0.4992666
13.512,-0.001733333
13.514000000000001,0.4439333
13.516,-0.006066666
13.518,0.4070666
13.52,0.4396
13.522,-0.0028
13.524000000000001,-0.007133333
13.526,0.4114
13.528,0.4667333
13.530000000000001,-0.006066666
13.532,-0.008199999
13.534,0.4082
13.536,0.4840666
13.538,-0.006066666
13.540000000000001,0.3658666
13.542,-0.0104
13.544,0.4667333
13.546000000000001,-0.0028
13.548,-0.004999999
13.55,0.4558666
13.552,0.5025333
13.554,-0.004999999
13.556000000000001,-0.003866666
13.558,0.4309333
13.56,0.0004666666
13.562000000000001,0.5003333
13.564,-0.0028
13.566,0.3745333
13.568,-0.006066666
13.57,0.5046666
13.572000000000001,0.3951333
13.574,-0.006066666
13.576,0.0004666666
13.578,0.4981999
13.58,0.4450666
13.582,-0.008199999
13.584,0.0004666666
13.586,0.4840666
13.588000000000001,0.4472
13.59,-0.0028
13.592,-0.004999999
13.594,0.4233333
13.596,0.3788666
13.598,-0.0028
13.6,-0.006066666
13.602,0.4385333
13.604000000000001,0.4548
13.606,0.0004666666
13.608,-0.01146667
13.61,0.4602
13.612,0.4428666
13.614,-0.004999999
13.616,-0.0028
13.618,0.3962666
13.620000000000001,0.483
13.622,0.0004666666
13.624,0.4157999
13.626,-0.0028
13.628,-0.0028
13.63,0.4624
13.632,0.406
13.634,-0.001733333
13.636000000000001,-0.0005999999
13.638,0.4450666
13.64,-0.004999999
13.642,0.406
13.644,0.4006
13.646,-0.0028
13.648,-0.0104
13.65,0.4016666
13.652000000000001,-0.004999999
13.654,0.4070666
13.656,-0.004999999
13.658,0.4168666
13.66,0.3908
13.662,-0.004999999
13.664,-0.003866666
13.666,0.4157999
13.668000000000001,-0.0028
13.67,0.4385333
13.672,-0.003866666
13.674,0.4103333
13.676,-0.008199999
13.678,0.4482666
13.68,0.4526666
13.682,0.0004666666
13.684000000000001,0.406
13.686,-0.0028
13.688,-0.008199999
13.69,0.4385333
13.692,0.432
13.694,-0.001733333
13.696,-0.006066666
13.698,0.4342
13.700000000000001,0.4407333
13.702,0.004799999
13.704,-0.003866666
13.706,0.4352666
13.708,0.4385333
13.71,-0.004999999
13.712,-0.0028
13.714,0.4255333
13.716000000000001,-0.0028
13.718,0.4201333
13.72,-0.006066666
13.722,0.4233333
13.724,0.001533333
13.726,0.4233333
13.728,0.4157999
13.73,-0.009333332
13.732000000000001,0.3843333
13.734,-0.0028
13.736,0.4515333
13.738,-0.0028
13.74,-0.008199999
13.742,0.4168666
13.744,0.4038666
13.746,-0.006066666
13.748000000000001,-0.007133333
13.75,0.4407333
13.752,-0.001733333
13.754,0.4580666
13.756,0.0004666666
13.758000000000001,0.4352666
13.76,0.0004666666
13.762,0.4418
13.764000000000001,0.4428666
13.766,-0.003866666
13.768,0.0004666666
13.77,0.4743333
13.772,-0.003866666
13.774000000000001,0.4526666
13.776,-0.004999999
13.778,0.4482666
13.780000000000001,-0.004999999
13.782,0.3843333
13.784,-0.009333332
13.786,0.4331333
13.788,0.4580666
13.790000000000001,-0.0005999999
13.792,-0.01146667
13.794,0.4309333
13.796000000000001,-0.0005999999
13.798,0.4537333
13.8,0.4526666
13.802,-0.006066666
13.804,0.0004666666
13.806000000000001,0.4807999
13.808,-0.003866666
13.81,0.4613333
13.812000000000001,-0.0028
13.814,0.4580666
13.816,-0.004999999
13.818,0.4233333
13.82,0.4645333
13.822000000000001,-0.0028
13.824,0.3767333
13.826,-0.003866666
13.828,-0.0028
13.83,0.4450666
13.832,0.3973333
13.834,-0.004999999
13.836,-0.004999999
13.838000000000001,0.4255333
13.84,0.4526666
13.842,-0.0028
13.844,-0.006066666
13.846,0.4558666
13.848,-0.0005999999
13.85,0.4418
13.852,-0.009333332
13.854000000000001,0.4255333
13.856,0.4504666
13.858,-0.001733333
13.86,-0.006066666
13.862,0.3995333
13.864,0.4504666
13.866,-0.001733333
13.868,-0.0005999999
13.870000000000001,0.4558666
13.872,0.4613333
13.874,-0.008199999
13.876,-0.006066666
13.878,0.4244666
13.88,0.4689333
13.882,-0.004999999
13.884,-0.009333332
13.886000000000001,0.3788666
13.888,0.4558666
13.89,0.0026
13.892,-0.003866666
13.894,0.3615333
13.896,-0.0005999999
13.898,0.4667333
13.9,0.419
13.902000000000001,-0.006066666
13.904,-0.007133333
13.906,0.4602
13.908,0.38
13.91,-0.007133333
13.912,-0.0104
13.914,0.4006
13.916,-0.006066666
13.918000000000001,0.3767333
13.92,-0.0005999999
13.922,0.4634666
13.924,0.3734666
13.926,-0.003866666
13.928,-0.008199999
13.93,0.4884
13.932,0.4049333
13.934000000000001,-0.0028
13.936,-0.003866666
13.938,0.4168666
13.94,0.4179333
13.942,-0.004999999
13.944,-0.001733333
13.946,0.4352666
13.948,-0.009333332
13.950000000000001,0.4699999
13.952,-0.007133333
13.954,0.3995333
13.956,0.4276666
13.958,-0.0104
13.96,-0.0158
13.962,0.3713333
13.964,0.3983999
13.966000000000001,-0.006066666
13.968,-0.006066666
13.97,0.3788666
13.972,0.4038666
13.974,-0.007133333
13.976,0.3658666
13.978,-0.008199999
13.98,-0.0005999999
13.982000000000001,0.4699999
13.984,-0.004999999
13.986,0.4331333
13.988,-0.0028
13.99,0.4689333
13.992,0.0004666666
13.994,0.4331333
13.996,-0.0028
13.998000000000001,0.4558666
14.0,0.3821333
14.002,-0.004999999
14.004,-0.008199999
14.006,0.4331333
14.008000000000001,-0.004999999
14.01,0.4775999
14.012,0.3767333
14.014000000000001,-0.008199999
14.016,-0.003866666
14.018,0.4591333
14.02,0.4721333
14.022,-0.006066666
14.024000000000001,0.4667333
14.026,-0.006066666
14.028,-0.0005999999
14.030000000000001,0.4342
14.032,-0.0028
14.034,0.4786666
14.036,-0.006066666
14.038,0.432
14.040000000000001,0.4753999
14.042,0.0026
14.044,0.4689333
14.046000000000001,-0.003866666
14.048,-0.0028
14.05,0.4938666
14.052,0.0004666666
14.054,0.4873333
14.056000000000001,0.4027333
14.058,-0.006066666
14.06,-0.006066666
14.062000000000001,0.483
14.064,-0.007133333
14.066,0.4580666
14.068,-0.008199999
14.07,0.4613333
14.072000000000001,-0.004999999
14.074,0.4526666
14.076,-0.007133333
14.078000000000001,0.4331333
14.08,-0.004999999
14.082,0.4450666
14.084,0.4114
14.086,-0.009333332
14.088000000000001,-0.003866666
14.09,0.4840666
14.092,-0.006066666
14.094,0.4602
14.096,0.4743333
14.098,-0.006066666
14.1,0.4634666
14.102,-0.004999999
14.104000000000001,-0.004999999
14.106,0.4710666
14.108,-0.001733333
14.11,0.4927333
14.112,0.4819333
14.114,-0.0028
14.116,-0.0104
14.118,0.3778
14.120000000000001,0.4201333
14.122,-0.0104
14.124,0.4331333
14.126,-0.008199999
14.128,-0.001733333
14.13,0.4667333
14.132,0.4656666
14.134,-0.008199999
14.136000000000001,-0.0028
14.138,0.4580666
14.14,0.4786666
14.142,0.001533333
14.144,-0.003866666
14.146,0.4591333
14.148,0.4927333
14.15,-0.0005999999
14.152000000000001,-0.007133333
14.154,0.4938666
14.156,-0.004999999
14.158,0.496
14.16,0.001533333
14.162,0.5035999
14.164,0.4873333
14.166,-0.006066666
14.168000000000001,-0.008199999
14.17,0.4472
14.172,-0.0028
14.174,0.483
14.176,-0.006066666
14.178,0.4136
14.18,0.4265999
14.182,-0.006066666
14.184000000000001,0.4364
14.186,-0.007133333
14.188,-0.008199999
14.19,0.4927333
14.192,0.0004666666
14.194,0.496
14.196,0.4439333
14.198,-0.0104
14.200000000000001,-0.0005999999
14.202,0.5133333
14.204,0.5188
14.206,-0.0028
14.208,0.0004666666
14.21,0.496
14.212,-0.0028
14.214,0.4807999
14.216000000000001,0.4613333
14.218,-0.006066666
14.22,-0.008199999
14.222,0.4927333
14.224,0.4558666
14.226,-0.001733333
14.228,-0.004999999
14.23,0.4906
14.232000000000001,-0.0028
14.234,0.4613333
14.236,-0.006066666
14.238,0.4396
14.24,-0.0158
14.242,0.5035999
14.244,-0.0028
14.246,0.4342
14.248000000000001,-0.006066666
14.25,0.4493999
14.252,-0.0028
14.254,0.4884
14.256,0.0026
14.258000000000001,0.5046666
14.26,-0.0005999999
14.262,0.5035999
14.264000000000001,-0.0005999999
14.266,0.4906
14.268,-0.0005999999
14.27,0.5144666
14.272,-0.004999999
14.274000000000001,0.4916666
14.276,-0.003866666
14.278,0.4385333
14.280000000000001,0.4753999
14.282,-0.006066666
14.284,0.496
14.286,-0.003866666
14.288,-0.004999999
14.290000000000001,0.4884
14.292,-0.01146667
14.294,0.4396
14.296000000000001,-0.004999999
14.298,0.4114
14.3,-0.003866666
14.302,0.4819333
14.304,-0.0028
14.306000000000001,0.4732666
14.308,0.0026
14.31,0.4992666
14.312000000000001,0.001533333
14.314,0.5013999
14.316,0.4906
14.318,0.0004666666
14.32,0.5144666
14.322000000000001,-0.0028
14.324,-0.01366667
14.326,0.4862666
14.328000000000001,-0.004999999
14.33,0.5003333
14.332,-0.006066666
14.334,0.4211999
14.336,-0.0104
14.338000000000001,0.4840666
14.34,0.483
14.342,-0.009333332
14.344,0.4049333
14.346,-0.008199999
14.348,0.4439333
14.35,-0.0104
14.352,-0.006066666
14.354000000000001,0.5133333
14.356,-0.006066666
14.358,0.4645333
14.36,0.5013999
14.362,-0.0028
14.364,0.4840666
14.366,-0.0028
14.368,0.0004666666
14.370000000000001,0.4667333
14.372,0.001533333
14.374,0.4678
14.376,0.4873333
14.378,-0.008199999
14.38,0.5133333
14.382,-0.003866666
14.384,-0.004999999
14.386000000000001,0.4634666
14.388,-0.004999999
14.39,0.4580666
14.392,-0.008199999
14.394,0.4428666
14.396,-0.008199999
14.398,0.4689333
14.4,-0.006066666
14.402000000000001,0.4656666
14.404,-0.007133333
14.406,0.4396
14.408,-0.009333332
14.41,0.483
14.412,0.0026
14.414,0.4949333
14.416,-0.0005999999
14.418000000000001,0.4515333
14.42,0.004799999
14.422,0.4689333
14.424,0.4624
14.426,-0.007133333
14.428,-0.004999999
14.43,0.5025333
14.432,-0.01146667
14.434000000000001,0.4418
14.436,-0.006066666
14.438,0.4548
14.44,0.4906
14.442,-0.01146667
14.444,0.4526666
14.446,-0.008199999
14.448,0.3528666
14.450000000000001,-0.007133333
14.452,-0.0028
14.454,0.4634666
14.456,-0.0028
14.458,0.4558666
14.46,-0.007133333
14.462,0.4656666
14.464,0.419
14.466000000000001,-0.0028
14.468,-0.001733333
14.47,0.496
14.472,0.4667333
14.474,-0.0028
14.476,-0.009333332
14.478,0.4895333
14.48,0.4753999
14.482000000000001,-0.003866666
14.484,0.4775999
14.486,-0.004999999
14.488,-0.008199999
14.49,0.4624
14.492,-0.01366667
14.494,0.4613333
14.496,-0.01473333
14.498000000000001,0.3582666
14.5,-0.009333332
14.502,0.4461333
14.504,-0.006066666
14.506,0.4201333
14.508000000000001,-0.007133333
14.51,0.4602
14.512,0.001533333
14.514000000000001,0.4331333
14.516,0.4906
14.518,-0.007133333
14.52,0.4504666
14.522,-0.0028
14.524000000000001,0.001533333
14.526,0.4678
14.528,0.0026
14.530000000000001,0.4753999
14.532,-0.0028
14.534,0.4710666
14.536,-0.009333332
14.538,0.4114
14.540000000000001,0.4689333
14.542,-0.003866666
14.544,0.4548
14.546000000000001,-0.008199999
14.548,-0.008199999
14.55,0.4689333
14.552,0.3788666
14.554,-0.004999999
14.556000000000001,0.3876
14.558,-0.0104
14.56,-0.01146667
14.562000000000001,0.4114
14.564,-0.008199999
14.566,0.4244666
14.568,-0.004999999
14.57,0.4157999
14.572000000000001,-0.006066666
14.574,0.4775999
14.576,-0.0028
14.578000000000001,0.4352666
14.58,0.4482666
14.582,0.0004666666
14.584,-0.01366667
14.586,0.4385333
14.588000000000001,-0.004999999
14.59,0.4428666
14.592,-0.006066666
14.594,0.3713333
14.596,-0.01253333
14.598,0.4364
14.6,0.4472
14.602,-0.008199999
14.604000000000001,0.38
14.606,-0.006066666
14.608,0.4179333
14.61,-0.01473333
14.612,-0.006066666
14.614,0.4482666
14.616,-0.006066666
14.618,0.4070666
14.620000000000001,-0.01146667
14.622,0.4385333
14.624,-0.0028
14.626,0.4602
14.628,0.4092666
14.63,-0.01253333
14.632,0.0004666666
14.634,0.4732666
14.636000000000001,0.4667333
14.638,-0.006066666
14.64,0.4352666
14.642,-0.007133333
14.644,0.4146666
14.646,-0.007133333
14.648,-0.006066666
14.65,0.4439333
14.652000000000001,-0.006066666
14.654,0.457
14.656,-0.01253333
14.658,0.4298666
14.66,-0.009333332
14.662,0.4493999
14.664,0.3333333
14.666,-0.009333332
14.668000000000001,-0.0104
14.67,0.4504666
14.672,-0.003866666
14.674,0.4244666
14.676,-0.008199999
14.678,0.4710666
14.68,0.4689333
14.682,-0.004999999
14.684000000000001,0.4927333
14.686,0.005866666
14.688,-0.004999999
14.69,0.4407333
14.692,0.4906
14.694,-0.003866666
14.696,-0.01146667
14.698,0.4211999
14.700000000000001,0.4493999
14.702,-0.006066666
14.704,0.4634666
14.706,-0.01146667
14.708,0.4450666
14.71,-0.008199999
14.712,-0.009333332
14.714,0.4265999
14.716000000000001,-0.003866666
14.718,0.4895333
14.72,0.4146666
14.722,-0.008199999
14.724,-0.008199999
14.726,0.4548
14.728,-0.006066666
14.73,0.4146666
14.732000000000001,-0.006066666
14.734,0.4873333
14.736,0.4667333
14.738,0.0004666666
14.74,-0.008199999
14.742,0.4938666
14.744,0.5035999
14.746,-0.006066666
14.748000000000001,-0.0028
14.75,0.4689333
14.752,-0.007133333
14.754,0.4082
14.756,-0.008199999
14.758000000000001,0.4407333
14.76,0.4602
14.762,-0.006066666
14.764000000000001,0.3756666
14.766,-0.008199999
14.768,0.4775999
14.77,-0.004999999
14.772,0.4179333
14.774000000000001,-0.0028
14.776,0.4157999
14.778,-0.0158
14.780000000000001,0.001533333
14.782,0.483
14.784,-0.006066666
14.786,0.4526666
14.788,-0.0028
14.790000000000001,0.4916666
14.792,0.001533333
14.794,0.5013999
14.796000000000001,0.001533333
14.798,0.5013999
14.8,0.4645333
14.802,-0.01146667
14.804,0.4699999
14.806000000000001,-0.008199999
14.808,-0.0104
14.81,0.483
14.812000000000001,-0.008199999
14.814,0.4222666
14.816,-0.01146667
14.818,0.4580666
14.82,-0.01253333
14.822000000000001,0.4884
14.824,-0.01146667
14.826,0.3366
14.828000000000001,0.0004666666
14.83,0.4807999
14.832,-0.0028
14.834,0.4439333
14.836,-0.0028
14.838000000000001,0.4385333
14.84,0.483
14.842,-0.0028
14.844000000000001,0.4906
14.846,-0.0005999999
14.848,-0.008199999
14.85,0.483
14.852,0.4981999
14.854000000000001,-0.001733333
14.856,-0.009333332
14.858,0.419
14.86,0.4721333
14.862,-0.006066666
14.864,0.4537333
14.866,-0.006066666
14.868,-0.01253333
14.870000000000001,0.4591333
14.872,-0.01473333
14.874,0.4938666
14.876,0.3464
14.878,-0.006066666
14.88,0.4450666
14.882,-0.006066666
14.884,-0.008199999
14.886000000000001,0.4233333
14.888,-0.0028
14.89,0.4797333
14.892,-0.0005999999
14.894,0.4526666
14.896,0.4721333
14.898,-0.006066666
14.9,-0.0005999999
14.902000000000001,0.4710666
14.904,0.4504666
14.906,-0.003866666
14.908,-0.003866666
14.91,0.4852
14.912,-0.009333332
14.914,0.4515333
14.916,-0.009333332
14.918000000000001,0.4103333
14.92,-0.004999999
14.922,0.432
14.924,-0.009333332
14.926,0.3561333
14.928,-0.01146667
14.93,0.4526666
14.932,0.4114
14.934000000000001,-0.007133333
14.936,0.4689333
14.938,-0.007133333
14.94,-0.0028
14.942,0.4775999
14.944,-0.0028
14.946,0.4721333
14.948,-0.0104
14.950000000000001,0.4656666
14.952,-0.006066666
14.954,0.496
14.956,-0.0028
14.958,0.4342
14.96,0.4689333
14.962,-0.004999999
14.964,0.4472
14.966000000000001,-0.0028
14.968,-0.007133333
14.97,0.4288
14.972,-0.0104
14.974,0.3702
14.976,-0.0104
14.978,0.4775999
14.98,0.4482666
14.982000000000001,-0.0158
14.984,-0.0104
14.986,0.4689333
14.988,-0.0028
14.99,0.4689333
14.992,-0.018
14.994,0.483
14.996,-0.004999999
14.998000000000001,0.4852
15.0,0.4548
15.002,0.003733333
15.004,-0.0028
15.006,0.4743333
15.008000000000001,0.0004666666
15.01,0.4916666
15.012,0.4125333
15.014000000000001,-0.009333332
15.016,-0.0104
15.018,0.4613333
15.02,0.4613333
15.022,-0.008199999
15.024000000000001,0.3691333
15.026,-0.007133333
15.028,0.4450666
15.030000000000001,-0.004999999
15.032,-0.004999999
15.034,0.483
15.036,0.4548
15.038,-0.0028
15.040000000000001,0.4396
15.042,-0.008199999
15.044,0.4526666
15.046000000000001,-0.0104
15.048,-0.0104
15.05,0.4775999
15.052,0.4613333
15.054,-0.0028
15.056000000000001,-0.0028
15.058,0.4602
15.06,0.4786666
15.062000000000001,-0.0005999999
15.064,0.4906
15.066,-0.001733333
15.068,0.4786666
15.07,-0.0028
15.072000000000001,-0.003866666
15.074,0.4125333
15.076,-0.0104
15.078000000000001,0.4450666
15.08,-0.009333332
15.082,0.4602
15.084,-0.01686667
15.086,0.4364
15.088000000000001,-0.007133333
15.09,0.4537333
15.092,0.3572
15.094000000000001,-0.0104
15.096,-0.0005999999
15.098,0.4732666
15.1,0.483
15.102,-0.003866666
15.104000000000001,0.0026
15.106,0.4721333
15.108,-0.004999999
15.11,0.483
15.112,0.4558666
15.114,-0.004999999
15.116,-0.008199999
15.118,0.4656666
15.120000000000001,0.483
15.122,-0.003866666
15.124,0.4472
15.126,-0.01146667
15.128,0.432
15.13,-0.01146667
15.132,0.4418
15.134,-0.006066666
15.136000000000001,-0.003866666
15.138,0.4558666
15.14,0.4374666
15.142,-0.008199999
15.144,-0.009333332
15.146,0.4624
15.148,-0.004999999
15.15,0.4439333
15.152000000000001,-0.0028
15.154,0.4775999
15.156,0.0004666666
15.158,0.4504666
15.16,-0.008199999
15.162,0.4710666
15.164,0.4602
15.166,-0.0005999999
15.168000000000001,0.0004666666
15.17,0.4797333
15.172,-0.0005999999
15.174,0.4732666
15.176,-0.01146667
15.178,0.4136
15.18,0.4201333
15.182,-0.009333332
15.184000000000001,0.4070666
15.186,-0.006066666
15.188,0.4743333
15.19,-0.006066666
15.192,0.4038666
15.194,-0.004999999
15.196,0.4862666
15.198,-0.01146667
15.200000000000001,0.4244666
15.202,-0.0028
15.204,-0.0028
15.206,0.4548
15.208,0.0004666666
15.21,0.4558666
15.212,-0.006066666
15.214,0.4699999
15.216000000000001,0.4580666
15.218,0.0004666666
15.22,0.4624
15.222,0.001533333
15.224,0.4136
15.226,-0.007133333
15.228,-0.003866666
15.23,0.4580666
15.232000000000001,-0.004999999
15.234,0.4309333
15.236,-0.01253333
15.238,0.4342
15.24,-0.01146667
15.242,0.4558666
15.244,-0.006066666
15.246,0.4678
15.248000000000001,-0.0104
15.25,0.4493999
15.252,-0.006066666
15.254,0.4396
15.256,-0.0005999999
15.258000000000001,0.4775999
15.26,-0.001733333
15.262,0.4667333
15.264000000000001,0.4764666
15.266,0.001533333
15.268,-0.004999999
15.27,0.4418
15.272,0.004799999
15.274000000000001,0.4852
15.276,-0.01146667
15.278,0.4439333
15.280000000000001,0.4721333
15.282,-0.003866666
15.284,0.4364
15.286,-0.009333332
15.288,0.4255333
15.290000000000001,-0.003866666
15.292,0.4092666
15.294,-0.006066666
15.296000000000001,0.3680666
15.298,-0.007133333
15.3,0.4819333
15.302,-0.006066666
15.304,-0.006066666
15.306000000000001,0.4526666
15.308,0.4515333
15.31,-0.003866666
15.312000000000001,-0.0028
15.314,0.4732666
15.316,0.4797333
15.318,0.0004666666
15.32,-0.0005999999
15.322000000000001,0.483
15.324,0.4613333
15.326,-0.001733333
15.328000000000001,-0.001733333
15.33,0.4873333
15.332,0.4548
15.334,-0.006066666
15.336,-0.004999999
15.338000000000001,0.4710666
15.34,0.4710666
15.342,-0.008199999
15.344000000000001,-0.007133333
15.346,0.4070666
15.348,0.4764666
15.35,-0.006066666
15.352,-0.0028
15.354000000000001,0.3550666
15.356,-0.0005999999
15.358,0.4992666
15.36,0.4450666
15.362,-0.003866666
15.364,0.4927333
15.366,-0.006066666
15.368,-0.007133333
15.370000000000001,0.4580666
15.372,0.0004666666
15.374,0.4721333
15.376,-0.003866666
15.378,0.4179333
15.38,-0.0005999999
15.382,0.4526666
15.384,0.4764666
15.386000000000001,-0.008199999
15.388,-0.009333332
15.39,0.4992666
15.392,-0.001733333
15.394,0.4439333
15.396,-0.006066666
15.398,0.4070666
15.4,0.4396
15.402000000000001,-0.0028
15.404,-0.007133333
15.406,0.4114
15.408,0.4667333
15.41,-0.006066666
15.412,-0.008199999
15.414,0.4082
15.416,0.4840666
15.418000000000001,-0.006066666
15.42,0.3658666
15.422,-0.0104
15.424,0.4667333
15.426,-0.0028
15.428,-0.004999999
15.43,0.4558666
15.432,0.5025333
15.434000000000001,-0.004999999
15.436,-0.003866666
15.438,0.4309333
15.44,0.0004666666
15.442,0.5003333
15.444,-0.0028
15.446,0.3745333
15.448,-0.006066666
15.450000000000001,0.5046666
15.452,0.3951333
15.454,-0.006066666
15.456,0.0004666666
15.458,0.4981999
15.46,0.4450666
15.462,-0.008199999
15.464,0.0004666666
15.466000000000001,0.4840666
15.468,0.4472
15.47,-0.0028
15.472,-0.004999999
15.474,0.4233333
15.476,0.3788666
15.478,-0.0028
15.48,-0.006066666
15.482000000000001,0.4385333
15.484,0.4548
15.486,0.0004666666
15.488,-0.01146667
15.49,0.4602
15.492,0.4428666
15.494,-0.004999999
15.496,-0.0028
15.498000000000001,0.3962666
15.5,0.483
15.502,0.0004666666
15.504,0.4157999
15.506,-0.0028
15.508000000000001,-0.0028
15.51,0.4624
15.512,0.406
15.514000000000001,-0.001733333
15.516,-0.0005999999
15.518,0.4450666
15.52,-0.004999999
15.522,0.406
15.524000000000001,0.4006
15.526,-0.0028
15.528,-0.0104
15.530000000000001,0.4016666
15.532,-0.004999999
15.534,0.4070666
15.536,-0.004999999
15.538,0.4168666
15.540000000000001,0.3908
15.542,-0.004999999
15.544,-0.003866666
15.546000000000001,0.4157999
15.548,-0.0028
15.55,0.4385333
15.552,-0.003866666
15.554,0.4103333
15.556000000000001,-0.008199999
15.558,0.4482666
15.56,0.4526666
15.562000000000001,0.0004666666
15.564,0.406
15.566,-0.0028
15.568,-0.008199999
15.57,0.4385333
15.572000000000001,0.432
15.574,-0.001733333
15.576,-0.006066666
15.578000000000001,0.4342
15.58,0.4407333
15.582,0.004799999
15.584,-0.003866666
15.586,0.4352666
15.588000000000001,0.4385333
15.59,-0.004999999
15.592,-0.0028
15.594000000000001,0.4255333
15.596,-0.0028
15.598,0.4201333
15.6,-0.006066666
15.602,0.4233333
15.604000000000001,0.001533333
15.606,0.4233333
15.608,0.4157999
15.610000000000001,-0.009333332
15.612,0.3843333
15.614,-0.0028
15.616,0.4515333
15.618,-0.0028
15.620000000000001,-0.008199999
15.622,0.4168666
15.624,0.4038666
15.626,-0.006066666
15.628,-0.007133333
15.63,0.4407333
15.632,-0.001733333
15.634,0.4580666
15.636000000000001,0.0004666666
15.638,0.4352666
15.64,0.0004666666
15.642,0.4418
15.644,0.4428666
15.646,-0.003866666
15.648,0.0004666666
15.65,0.4743333
15.652000000000001,-0.003866666
15.654,0.4526666
15.656,-0.004999999
15.658,0.4482666
15.66,-0.004999999
15.662,0.3843333
15.664,-0.009333332
15.666,0.4331333
15.668000000000001,0.4580666
15.67,-0.0005999999
15.672,-0.01146667
15.674,0.4309333
15.676,-0.0005999999
15.678,0.4537333
15.68,0.4526666
15.682,-0.006066666
15.684000000000001,0.0004666666
15.686,0.4807999
15.688,-0.003866666
15.69,0.4613333
15.692,-0.0028
15.694,0.4580666
15.696,-0.004999999
15.698,0.4233333
15.700000000000001,0.4645333
15.702,-0.0028
15.704,0.3767333
15.706,-0.003866666
15.708,-0.0028
15.71,0.4450666
15.712,0.3973333
15.714,-0.004999999
15.716000000000001,-0.004999999
15.718,0.4255333
15.72,0.4526666
15.722,-0.0028
15.724,-0.006066666
15.726,0.4558666
15.728,-0.0005999999
15.73,0.4418
15.732000000000001,-0.009333332
15.734,0.4255333
15.736,0.4504666
15.738,-0.001733333
15.74,-0.006066666
15.742,0.3995333
15.744,0.4504666
15.746,-0.001733333
15.748000000000001,-0.0005999999
15.75,0.4558666
15.752,0.4613333
15.754,-0.008199999
15.756,-0.006066666
15.758000000000001,0.4244666
15.76,0.4689333
15.762,-0.004999999
15.764000000000001,-0.009333332
15.766,0.3788666
15.768,0.4558666
15.77,0.0026
15.772,-0.003866666
15.774000000000001,0.3615333
15.776,-0.0005999999
15.778,0.4667333
15.780000000000001,0.419
15.782,-0.006066666
15.784,-0.007133333
15.786,0.4602
15.788,0.38
15.790000000000001,-0.007133333
15.792,-0.0104
15.794,0.4006
15.796000000000001,-0.006066666
15.798,0.3767333
15.8,-0.0005999999
15.802,0.4634666
15.804,0.3734666
15.806000000000001,-0.003866666
15.808,-0.008199999
15.81,0.4884
15.812000000000001,0.4049333
15.814,-0.0028
15.816,-0.003866666
15.818,0.4168666
15.82,0.4179333
15.822000000000001,-0.004999999
15.824,-0.001733333
15.826,0.4352666
15.828000000000001,-0.009333332
15.83,0.4699999
15.832,-0.007133333
15.834,0.3995333
15.836,0.4276666
15.838000000000001,-0.0104
15.84,-0.0158
15.842,0.3713333
15.844000000000001,0.3983999
15.846,-0.006066666
15.848,-0.006066666
15.85,0.3788666
15.852,0.4038666
15.854000000000001,-0.007133333
15.856,0.3658666
15.858,-0.008199999
15.860000000000001,-0.0005999999
15.862,0.4699999
15.864,-0.004999999
15.866,0.4331333
15.868,-0.0028
15.870000000000001,0.4689333
15.872,0.0004666666
15.874,0.4331333
15.876,-0.0028
15.878,0.4558666
15.88,0.4852
15.882,-0.0104
15.884,0.4288
15.886000000000001,-0.004999999
15.888,0.3940666
15.89,-0.004999999
15.892,-0.0028
15.894,0.3745333
15.896,-0.003866666
15.898,0.3680666
15.9,-0.004999999
15.902000000000001,0.3734666
15.904,0.4374666
15.906,-0.0028
15.908,-0.004999999
15.91,0.3745333
15.912,-0.0028
15.914,0.4504666
15.916,0.4374666
15.918000000000001,-0.001733333
15.92,0.4558666
15.922,-0.003866666
15.924,0.4255333
15.926,-0.001733333
15.928,-0.004999999
15.93,0.4396
15.932,0.4364
15.934000000000001,-0.0028
15.936,-0.001733333
15.938,0.4418
15.94,-0.0028
15.942,0.3973333
15.944,-0.003866666
15.946,0.4006
15.948,0.0004666666
15.950000000000001,0.38
15.952,-0.007133333
15.954,0.3929999
15.956,-0.01366667
15.958,0.3680666
15.96,0.0004666666
15.962,0.4114
15.964,0.0004666666
15.966000000000001,0.4580666
15.968,-0.006066666
15.97,0.4364
15.972,-0.0028
15.974,0.4667333
15.976,-0.0005999999
15.978,0.4558666
15.98,0.4689333
15.982000000000001,-0.007133333
15.984,-0.0005999999
15.986,0.4580666
15.988,0.4407333
15.99,-0.004999999
15.992,-0.003866666
15.994,0.4352666
15.996,0.4288
15.998000000000001,0.3431333
16.0,0.05899999
16.002,0.4331333
16.004,-0.008199999
16.006,0.457
16.008,0.4667333
16.01,-0.004999999
16.012,0.4418
16.014,-0.008199999
16.016000000000002,-0.0028
16.018,0.4786666
16.02,0.4364
16.022000000000002,0.0004666666
16.024,-0.003866666
16.026,0.4775999
16.028,0.4927333
16.03,-0.007133333
16.032,0.4938666
16.034,-0.004999999
16.036,-0.004999999
16.038,0.5035999
16.04,0.0026
16.042,0.4873333
16.044,0.406
16.046,-0.008199999
16.048000000000002,0.4472
16.05,-0.0028
16.052,0.483
16.054000000000002,0.001533333
16.056,-0.006066666
16.058,0.4265999
16.06,-0.006066666
16.062,0.4364
16.064,-0.008199999
16.066,0.4927333
16.068,0.0004666666
16.07,0.496
16.072,0.4721333
16.074,-0.0028
16.076,-0.0104
16.078,0.5133333
16.080000000000002,0.008066666
16.082,0.5188
16.084,-0.0028
16.086000000000002,0.4775999
16.088,0.496
16.09,-0.0028
16.092,0.4807999
16.094,0.0026
16.096,-0.008199999
16.098,0.4927333
16.1,-0.0028
16.102,0.4558666
16.104,-0.004999999
16.106,0.4168666
16.108,0.4906
16.11,-0.0028
16.112000000000002,0.4613333
16.114,-0.006066666
16.116,0.4396
16.118000000000002,-0.004999999
16.12,-0.0158
16.122,0.5035999
16.124,0.4342
16.126,-0.003866666
16.128,-0.006066666
16.13,0.4493999
16.132,-0.0005999999
16.134,0.4884
16.136,0.5046666
16.138,-0.0005999999
16.14,0.5035999
16.142,0.001533333
16.144000000000002,-0.0005999999
16.146,0.496
16.148,0.5144666
16.15,-0.004999999
16.152,-0.004999999
16.154,0.4916666
16.156,-0.003866666
16.158,0.4753999
16.16,-0.006066666
16.162,0.496
16.164,-0.004999999
16.166,0.4884
16.168,-0.01146667
16.17,0.4396
16.172,-0.006066666
16.174,0.3962666
16.176000000000002,-0.003866666
16.178,0.4743333
16.18,0.4819333
16.182,-0.0028
16.184,-0.0005999999
16.186,0.4732666
16.188,0.001533333
16.19,0.5013999
16.192,0.0026
16.194,0.4906
16.196,0.0004666666
16.198,0.5144666
16.2,0.4895333
16.202,-0.01366667
16.204,-0.004999999
16.206,0.4743333
16.208000000000002,0.5003333
16.21,-0.006066666
16.212,0.4211999
16.214,-0.008199999
16.216,-0.0104
16.218,0.4840666
16.22,0.4461333
16.222,-0.008199999
16.224,0.4439333
16.226,-0.0104
16.228,-0.0104
16.23,0.5133333
16.232,0.5013999
16.234,-0.006066666
16.236,0.0004666666
16.238,0.5013999
16.240000000000002,-0.0028
16.242,0.4840666
16.244,0.4689333
16.246,0.0004666666
16.248,0.4656666
16.25,0.001533333
16.252,0.4873333
16.254,-0.007133333
16.256,-0.008199999
16.258,0.5133333
16.26,-0.004999999
16.262,0.4634666
16.264,-0.004999999
16.266000000000002,0.4580666
16.268,0.4331333
16.27,-0.008199999
16.272000000000002,0.4428666
16.274,-0.008199999
16.276,0.4689333
16.278,-0.006066666
16.28,0.4656666
16.282,-0.007133333
16.284,0.4396
16.286,-0.009333332
16.288,0.0026
16.29,0.483
16.292,0.4949333
16.294,-0.0005999999
16.296,0.0004666666
16.298000000000002,0.4689333
16.3,0.4656666
16.302,-0.0005999999
16.304000000000002,-0.007133333
16.306,0.4396
16.308,0.5025333
16.31,-0.0028
16.312,-0.01146667
16.314,0.4418
16.316,-0.006066666
16.318,0.4906
16.32,-0.01146667
16.322,0.4526666
16.324,0.4027333
16.326,-0.008199999
16.328,-0.007133333
16.330000000000002,0.4634666
16.332,-0.0028
16.334,0.4558666
16.336000000000002,-0.007133333
16.338,0.4656666
16.34,-0.0028
16.342,0.4396
16.344,-0.001733333
16.346,0.496
16.348,0.4721333
16.35,0.0004666666
16.352,-0.009333332
16.354,0.4895333
16.356,-0.004999999
16.358,0.4753999
16.36,-0.003866666
16.362000000000002,0.4775999
16.364,-0.008199999
16.366,0.4396
16.368000000000002,0.4624
16.37,-0.01366667
16.372,0.4613333
16.374,-0.01146667
16.376,-0.01473333
16.378,0.3582666
16.38,-0.009333332
16.382,0.4461333
16.384,0.4526666
16.386,-0.004999999
16.388,-0.007133333
16.39,0.4602
16.392,0.0004666666
16.394000000000002,0.4906
16.396,-0.007133333
16.398,0.4504666
16.4,-0.0028
16.402,0.4407333
16.404,0.001533333
16.406,0.4721333
16.408,0.4753999
16.41,-0.001733333
16.412,0.4710666
16.414,-0.009333332
16.416,-0.004999999
16.418,0.4689333
16.42,0.4548
16.422,-0.008199999
16.424,-0.008199999
16.426000000000002,0.4580666
16.428,0.4689333
16.43,-0.004999999
16.432,0.3788666
16.434,-0.006066666
16.436,0.3876
16.438,-0.01146667
16.44,-0.0104
16.442,0.4114
16.444,0.4244666
16.446,-0.004999999
16.448,0.4255333
16.45,-0.0028
16.452,-0.006066666
16.454,0.4775999
16.456,-0.0028
16.458000000000002,0.4482666
16.46,0.4461333
16.462,-0.01366667
16.464,-0.004999999
16.466,0.3897333
16.468,0.4428666
16.47,-0.006066666
16.472,0.3713333
16.474,-0.01253333
16.476,-0.007133333
16.478,0.4472
16.48,-0.008199999
16.482,0.38
16.484,-0.006066666
16.486,0.4179333
16.488,-0.01473333
16.490000000000002,0.4482666
16.492,-0.006066666
16.494,0.4070666
16.496,-0.01146667
16.498,0.4385333
16.5,-0.004999999
16.502,0.4157999
16.504,0.4602
16.506,-0.001733333
16.508,-0.01253333
16.51,0.4407333
16.512,0.4732666
16.514,0.003733333
16.516000000000002,-0.006066666
16.518,0.4352666
16.52,-0.007133333
16.522000000000002,0.4146666
16.524,-0.007133333
16.526,0.3734666
16.528,0.4439333
16.53,-0.006066666
16.532,0.457
16.534,-0.0104
16.536,-0.01253333
16.538,0.4298666
16.54,-0.009333332
16.542,0.4493999
16.544,-0.009333332
16.546,0.4439333
16.548000000000002,-0.0104
16.55,0.4504666
16.552,0.4342
16.554000000000002,-0.008199999
16.556,-0.004999999
16.558,0.4710666
16.56,-0.004999999
16.562,0.4927333
16.564,0.4472
16.566,-0.004999999
16.568,-0.0005999999
16.57,0.4906
16.572,0.4613333
16.574,-0.01146667
16.576,-0.006066666
16.578,0.4493999
16.580000000000002,0.4634666
16.582,-0.008199999
16.584,-0.01146667
16.586000000000002,0.4450666
16.588,-0.009333332
16.59,0.4265999
16.592,0.3431333
16.594,-0.003866666
16.596,0.4895333
16.598,-0.004999999
16.6,-0.008199999
16.602,0.4082
16.604,-0.008199999
16.606,0.4548
16.608,0.4439333
16.61,-0.004999999
16.612000000000002,-0.006066666
16.614,0.4873333
16.616,0.4526666
16.618000000000002,-0.0005999999
16.62,-0.008199999
16.622,0.5035999
16.624,-0.006066666
16.626,0.4558666
16.628,0.4689333
16.63,-0.007133333
16.632,0.4082
16.634,-0.006066666
16.636,-0.008199999
16.638,0.4602
16.64,-0.006066666
16.642,0.4070666
16.644000000000002,-0.008199999
16.646,0.4775999
16.648,-0.004999999
16.65,0.4179333
16.652,-0.01146667
16.654,0.4157999
16.656,-0.0158
16.658,0.483
16.66,0.4634666
16.662,-0.006066666
16.664,-0.004999999
16.666,0.4916666
16.668,0.4689333
16.67,0.0026
16.672,0.001533333
16.674,0.5013999
16.676000000000002,0.4645333
16.678,-0.001733333
16.68,-0.01146667
16.682,0.4699999
16.684,-0.0104
16.686,0.4548
16.688,0.483
16.69,-0.008199999
16.692,0.4222666
16.694,-0.003866666
16.696,0.4580666
16.698,-0.01253333
16.7,-0.0104
16.702,0.4884
16.704,-0.01146667
16.706,0.3919333
16.708000000000002,0.4807999
16.71,-0.0005999999
16.712,-0.0028
16.714,0.4439333
16.716,-0.0005999999
16.718,0.483
16.72,-0.0028
16.722,0.4906
16.724,0.4775999
16.726,-0.008199999
16.728,-0.0005999999
16.73,0.4981999
16.732,0.4656666
16.734,-0.0028
16.736,-0.009333332
16.738,0.4721333
16.740000000000002,-0.006066666
16.742,0.4537333
16.744,-0.01253333
16.746,0.4428666
16.748,-0.01473333
16.75,0.4938666
16.752,0.4342
16.754,-0.004999999
16.756,-0.006066666
16.758,0.4450666
16.76,-0.006066666
16.762,0.4222666
16.764,-0.008199999
16.766000000000002,0.4233333
16.768,-0.001733333
16.77,0.4797333
16.772000000000002,-0.0005999999
16.774,0.4721333
16.776,-0.006066666
16.778,0.4710666
16.78,-0.0005999999
16.782,0.4504666
16.784,-0.003866666
16.786,0.4580666
16.788,0.4852
16.79,-0.009333332
16.792,0.4515333
16.794,-0.006066666
16.796,-0.009333332
16.798000000000002,0.4103333
16.8,0.432
16.802,-0.009333332
16.804000000000002,-0.007133333
16.806,0.4418
16.808,-0.01146667
16.81,0.4526666
16.812,-0.007133333
16.814,0.4689333
16.816,-0.007133333
16.818,0.4667333
16.82,0.4775999
16.822,-0.0028
16.824,-0.0104
16.826,0.4656666
16.828,0.4613333
16.830000000000002,-0.006066666
16.832,0.496
16.834,0.0004666666
16.836000000000002,-0.0028
16.838,0.4689333
16.84,-0.004999999
16.842,0.4472
16.844,-0.007133333
16.846,0.4288
16.848,0.4201333
16.85,-0.0104
16.852,-0.0104
16.854,0.4049333
16.856,0.4775999
16.858,-0.007133333
16.86,0.4482666
16.862000000000002,-0.0158
16.864,-0.0005999999
16.866,0.4689333
16.868000000000002,0.4689333
16.87,-0.018
16.872,0.483
16.874,-0.0028
16.876,-0.004999999
16.878,0.4852
16.88,-0.0028
16.882,0.4743333
16.884,0.4439333
16.886,-0.001733333
16.888,0.4916666
16.89,-0.007133333
16.892,0.4016666
16.894000000000002,-0.009333332
16.896,-0.0104
16.898,0.4613333
16.9,-0.008199999
16.902,0.38
16.904,-0.007133333
16.906,0.4450666
16.908,-0.004999999
16.91,0.483
16.912,-0.004999999
16.914,0.4548
16.916,-0.0028
16.918,0.4396
16.92,-0.008199999
16.922,0.4526666
16.924,-0.0104
16.926000000000002,0.4580666
16.928,0.4775999
16.93,-0.001733333
16.932,-0.0028
16.934,0.4450666
16.936,0.0026
16.938,0.4786666
16.94,-0.0005999999
16.942,0.4906
16.944,-0.001733333
16.946,0.457
16.948,0.4786666
16.95,-0.003866666
16.952,0.4125333
16.954,-0.006066666
16.956,-0.0104
16.958000000000002,0.4450666
16.96,-0.003866666
16.962,0.4602
16.964,-0.01686667
16.966,0.4364
16.968,0.4537333
16.97,-0.007133333
16.972,-0.0104
16.974,0.4493999
16.976,0.0004666666
16.978,0.483
16.98,-0.003866666
16.982,0.4710666
16.984,0.4721333
16.986,-0.004999999
16.988,0.483
16.990000000000002,-0.004999999
16.992,0.4385333
16.994,-0.008199999
16.996,-0.007133333
16.998,0.483
17.0,-0.003866666
17.002,0.4472
17.004,-0.01146667
17.006,0.432
17.008,-0.01146667
17.01,0.4418
17.012,-0.006066666
17.014,0.4364
17.016000000000002,0.4558666
17.018,-0.003866666
17.02,0.3788666
17.022000000000002,-0.009333332
17.024,0.4624
17.026,-0.004999999
17.028,-0.0005999999
17.03,0.4439333
17.032,-0.0028
17.034,0.4775999
17.036,0.4504666
17.038,0.0004666666
17.04,-0.008199999
17.042,0.4710666
17.044,-0.0005999999
17.046,0.4428666
17.048000000000002,0.4797333
17.05,-0.0005999999
17.052,0.4732666
17.054000000000002,-0.01146667
17.056,-0.007133333
17.058,0.4201333
17.06,-0.009333332
17.062,0.4070666
17.064,-0.006066666
17.066,0.4743333
17.068,-0.006066666
17.07,0.4038666
17.072,-0.006066666
17.074,0.4862666
17.076,-0.01146667
17.078,0.4244666
17.080000000000002,-0.0028
17.082,0.4548
17.084,-0.0005999999
17.086000000000002,0.4450666
17.088,0.4558666
17.09,-0.006066666
17.092,-0.004999999
17.094,0.4699999
17.096,0.0004666666
17.098,0.4504666
17.1,0.4624
17.102,-0.007133333
17.104,-0.004999999
17.106,0.4428666
17.108,0.4580666
17.11,-0.004999999
17.112000000000002,0.4114
17.114,-0.01253333
17.116,0.4342
17.118000000000002,-0.01146667
17.12,0.4558666
17.122,-0.008199999
17.124,0.4678
17.126,-0.0104
17.128,-0.004999999
17.13,0.4493999
17.132,-0.006066666
17.134,0.4548
17.136,0.4775999
17.138,-0.001733333
17.14,0.0004666666
17.142,0.4764666
17.144000000000002,0.4764666
17.146,-0.004999999
17.148,0.004799999
17.150000000000002,0.4852
17.152,0.4721333
17.154,-0.004999999
17.156,-0.01146667
17.158,0.4721333
17.16,0.4364
17.162,-0.004999999
17.164,-0.009333332
17.166,0.4255333
17.168,-0.003866666
17.17,0.4092666
17.172,-0.006066666
17.174,0.3680666
17.176000000000002,-0.007133333
17.178,0.4819333
17.18,0.3626
17.182,-0.006066666
17.184,-0.006066666
17.186,0.4526666
17.188,0.4385333
17.19,-0.003866666
17.192,-0.001733333
17.194,0.4797333
17.196,0.4558666
17.198,-0.0005999999
17.2,-0.0005999999
17.202,0.483
17.204,-0.001733333
17.206,0.4114
17.208000000000002,0.0004666666
17.21,0.4873333
17.212,0.4548
17.214,-0.006066666
17.216,0.4710666
17.218,-0.004999999
17.22,-0.008199999
17.222,0.4114
17.224,-0.007133333
17.226,0.4764666
17.228,-0.001733333
17.23,0.4634666
17.232,-0.0028
17.234,0.4992666
17.236,0.4396
17.238,0.0026
17.240000000000002,-0.003866666
17.242,0.4927333
17.244,0.4558666
17.246,-0.007133333
17.248,-0.0005999999
17.25,0.4580666
17.252,0.4721333
17.254,0.0004666666
17.256,-0.003866666
17.258,0.4179333
17.26,-0.0005999999
17.262,0.4764666
17.264,-0.009333332
17.266000000000002,0.4656666
17.268,0.4992666
17.27,-0.001733333
17.272000000000002,-0.006066666
17.274,0.3550666
17.276,-0.0028
17.278,0.4396
17.28,0.3572
17.282,-0.003866666
17.284,-0.007133333
17.286,0.4439333
17.288,0.4667333
17.29,-0.008199999
17.292,-0.008199999
17.294,0.4840666
17.296,0.4146666
17.298000000000002,-0.006066666
17.3,-0.0104
17.302,0.4667333
17.304000000000002,0.4092666
17.306,-0.004999999
17.308,0.5025333
17.31,-0.004999999
17.312,0.4862666
17.314,-0.004999999
17.316,-0.003866666
17.318,0.4775999
17.32,0.5003333
17.322,-0.0028
17.324,-0.006066666
17.326,0.4385333
17.328,0.5046666
17.330000000000002,-0.004999999
17.332,0.3951333
17.334,-0.006066666
17.336000000000002,0.0004666666
17.338,0.4981999
17.34,-0.008199999
17.342,0.3810666
17.344,0.4840666
17.346,-0.0028
17.348,0.3854
17.35,-0.0028
17.352,-0.004999999
17.354,0.4233333
17.356,0.3767333
17.358,-0.006066666
17.36,-0.003866666
17.362000000000002,0.4548
17.364,0.3929999
17.366,-0.01146667
17.368000000000002,-0.0028
17.37,0.4602
17.372,-0.004999999
17.374,0.3962666
17.376,-0.0005999999
17.378,0.483
17.38,0.4157999
17.382,-0.0028
17.384,-0.0028
17.386,0.4364
17.388,0.4624
17.39,0.001533333
17.392,-0.001733333
17.394000000000002,0.4450666
17.396,0.3929999
17.398,-0.004999999
17.400000000000002,0.406
17.402,-0.0028
17.404,0.3788666
17.406,-0.0104
17.408,0.4016666
17.41,-0.004999999
17.412,-0.004999999
17.414,0.4168666
17.416,0.3908
17.418,-0.003866666
17.42,-0.004999999
17.422,0.4157999
17.424,0.4146666
17.426000000000002,-0.0028
17.428,0.4385333
17.43,-0.003866666
17.432,-0.001733333
17.434,0.4276666
17.436,-0.008199999
17.438,0.4526666
17.44,0.4146666
17.442,-0.0005999999
17.444,0.4255333
17.446,-0.008199999
17.448,-0.008199999
17.45,0.4385333
17.452,0.4136
17.454,-0.006066666
17.456,-0.0005999999
17.458000000000002,0.4407333
17.46,0.4342
17.462,-0.003866666
17.464,0.0004666666
17.466,0.4385333
17.468,0.4309333
17.47,-0.004999999
17.472,0.4255333
17.474,-0.0028
17.476,0.4201333
17.478,-0.003866666
17.48,-0.006066666
17.482,0.4233333
17.484,0.001533333
17.486,0.4233333
17.488,-0.009333332
17.490000000000002,0.4125333
17.492,-0.0028
17.494,0.4515333
17.496,-0.008199999
17.498,0.4168666
17.5,-0.008199999
17.502,0.4082
17.504,-0.007133333
17.506,0.4407333
17.508,0.4374666
17.51,-0.004999999
17.512,-0.0005999999
17.514,0.4580666
17.516000000000002,0.0004666666
17.518,0.4418
17.52,0.0004666666
17.522000000000002,0.4428666
17.524,-0.003866666
17.526,0.4602
17.528,0.4743333
17.53,-0.003866666
17.532,-0.0005999999
17.534,0.4070666
17.536,-0.004999999
17.538,0.4482666
17.54,-0.003866666
17.542,0.3756666
17.544,-0.009333332
17.546,0.4580666
17.548000000000002,0.4428666
17.55,-0.01146667
17.552,-0.001733333
17.554000000000002,0.4526666
17.556,0.4537333
17.558,-0.0028
17.56,-0.006066666
17.562,0.4807999
17.564,-0.003866666
17.566,0.4233333
17.568,0.4613333
17.57,-0.0028
17.572,0.4580666
17.574,0.0004666666
17.576,-0.004999999
17.578,0.4645333
17.580000000000002,0.4526666
17.582,-0.003866666
17.584,-0.003866666
17.586000000000002,0.4092666
17.588,0.4450666
17.59,0.0004666666
17.592,-0.004999999
17.594,0.3431333
17.596,-0.0028
17.598,0.4526666
17.6,-0.006066666
17.602,0.3518
17.604,-0.004999999
17.606,0.4558666
17.608,0.4418
17.61,-0.004999999
17.612000000000002,-0.009333332
17.614,0.4504666
17.616,0.4006
17.618000000000002,-0.006066666
17.62,-0.001733333
17.622,0.4504666
17.624,-0.0005999999
17.626,0.3951333
17.628,0.4613333
17.63,0.0004666666
17.632,0.3691333
17.634,-0.008199999
17.636,-0.003866666
17.638,0.4689333
17.64,0.4049333
17.642,-0.009333332
17.644000000000002,-0.0028
17.646,0.4558666
17.648,0.4309333
17.650000000000002,-0.003866666
17.652,-0.0005999999
17.654,0.4342
17.656,0.4667333
17.658,-0.006066666
17.66,-0.007133333
17.662,0.4602
17.664,0.4407333
17.666,-0.007133333
17.668,0.3724
17.67,-0.0104
17.672,0.4006
17.674,-0.006066666
17.676000000000002,-0.0005999999
17.678,0.3767333
17.68,0.4634666
17.682,-0.0028
17.684,-0.008199999
17.686,0.3843333
17.688,0.4884
17.69,-0.0028
17.692,0.3680666
17.694,-0.003866666
17.696,-0.003866666
17.698,0.4179333
17.7,-0.004999999
17.702,0.4352666
17.704,-0.009333332
17.706,0.4699999
17.708000000000002,0.4364
17.71,-0.007133333
17.712,-0.0028
17.714,0.4276666
17.716,0.4038666
17.718,-0.0104
17.72,-0.0158
17.722,0.3983999
17.724,0.367
17.726,-0.006066666
17.728,0.4038666
17.73,-0.007133333
17.732,0.3843333
17.734,-0.004999999
17.736,-0.008199999
17.738,0.4418
17.740000000000002,0.4699999
17.742,-0.004999999
17.744,-0.0028
17.746,0.4515333
17.748,0.4689333
17.75,0.0004666666
17.752,0.4331333
17.754,-0.0028
17.756,-0.0005999999
17.758,0.4852
17.76,-0.0104
17.762,0.4288
17.764,-0.0005999999
17.766000000000002,0.4092666
17.768,0.3713333
17.77,-0.004999999
17.772000000000002,0.3745333
17.774,-0.003866666
17.776,0.3691333
17.778,-0.004999999
17.78,-0.0028
17.782,0.4374666
17.784,0.4233333
17.786,-0.0028
17.788,-0.004999999
17.79,0.4428666
17.792,-0.0028
17.794,0.4504666
17.796,-0.001733333
17.798000000000002,0.4558666
17.8,-0.003866666
17.802,0.4255333
17.804000000000002,0.4331333
17.806,-0.004999999
17.808,0.4396
17.81,-0.0028
17.812,0.4364
17.814,-0.0028
17.816,0.4418
17.818,-0.0028
17.82,0.3973333
17.822,-0.003866666
17.824,0.4006
17.826,0.0004666666
17.828,0.38
17.830000000000002,-0.007133333
17.832,0.3929999
17.834,-0.01366667
17.836000000000002,-0.0028
17.838,0.3908
17.84,0.0004666666
17.842,0.4255333
17.844,0.4580666
17.846,-0.006066666
17.848,-0.0028
17.85,0.4364
17.852,-0.0028
17.854,0.4667333
17.856,0.4689333
17.858,0.0004666666
17.86,-0.007133333
17.862000000000002,0.4580666
17.864,0.0026
17.866,0.4407333
17.868000000000002,-0.004999999
17.87,0.3832666
17.872,0.4352666
17.874,0.0004666666
17.876,-0.01366667
17.878,0.3788666
17.88,-0.008199999
17.882,0.3919333
17.884,-0.006066666
17.886,0.4222666
17.888,-0.0028
17.89,0.3810666
17.892,-0.006066666
17.894000000000002,0.4070666
17.896,-0.0028
17.898,0.4439333
17.900000000000002,0.0004666666
17.902,0.4418
17.904,0.4472
17.906,-0.004999999
17.908,0.4526666
17.91,0.0004666666
17.912,0.4699999
17.914,-0.0028
17.916,0.4504666
17.918,-0.004999999
17.92,-0.004999999
17.922,0.4493999
17.924,-0.0028
17.926000000000002,0.4038666
17.928,0.3821333
17.93,-0.0028
17.932,0.3886666
17.934,-0.001733333
17.936,-0.006066666
17.938,0.3778
17.94,-0.006066666
17.942,0.3919333
17.944,0.4276666
17.946,-0.0028
17.948,-0.006066666
17.95,0.4114
17.952,0.001533333
17.954,0.4493999
17.956,-0.006066666
17.958000000000002,0.4439333
17.96,0.4613333
17.962,-0.001733333
17.964,-0.018
17.966,0.4385333
17.968,0.4602
17.97,-0.0028
17.972,0.4439333
17.974,-0.004999999
17.976,0.3929999
17.978,-0.006066666
17.98,0.3788666
17.982,-0.003866666
17.984,-0.0028
17.986,0.3908
17.988,-0.006066666
17.990000000000002,0.3734666
17.992,-0.0028
17.994,0.3756666
17.996,-0.0028
17.998,0.03513333
